34, 1001
Carrie Womack
NOAA Chemical Sciences Laboratory
2B Tech O3 UV Analyzer
USOS
1, 1
2024, 07, 22, 2024, 12, 21
60
Time_Start, seconds_past_midnight, Seconds from midnight UTC
1
1
-9999
O3_ppb, ppb, Ozone from 2B Tech UV Analyzer
1
SPECIAL COMMENTS:
18
PI_CONTACT_INFO: Address: 325 Broadway R/CSL7, Boulder, CO, 80305
PLATFORM: CSL Mobile Lab
LOCATION: Salt Lake City, UT
ASSOCIATED_DATA: N/A
INSTRUMENT_INFO: N/A
DATA_INFO: Units:
UNCERTAINTY: N/A
ULOD_FLAG: -7777
ULOD_VALUE: N/A
LLOD_FLAG: -8888
LLOD_VALUE: N/A
DM_CONTACT_INFO: Data Manager: Nate Howard
PROJECT_INFO: 
STIPULATIONS_ON_USE: Use of these data require prior ok from PI.
OTHER_COMMENTS: N/A
REVISION: R0
R0: Final data. RA: Preliminary Data.  For in-field use only.
Time_Start, O3_ppb
0.0,68.9
60.0,67.6
120.0,68.0
180.0,67.6
240.0,68.7
300.0,69.7
360.0,68.8
420.0,69.1
480.0,70.0
540.0,70.1
600.0,69.6
660.0,70.1
720.0,70.8
780.0,68.9
840.0,70.4
900.0,70.7
960.0,71.0
1020.0,69.8
1080.0,73.0
1140.0,71.6
1200.0,69.3
1260.0,69.7
1320.0,69.5
1380.0,70.9
1440.0,70.1
1500.0,69.5
1560.0,71.1
1620.0,71.3
1680.0,71.7
1740.0,71.2
1800.0,71.6
1860.0,71.9
1920.0,71.6
1980.0,70.9
2040.0,71.4
2100.0,71.8
2160.0,71.5
2220.0,71.6
2280.0,72.0
2340.0,71.6
2400.0,71.4
2460.0,70.6
2520.0,69.2
2580.0,69.3
2640.0,70.9
2700.0,69.6
2760.0,68.1
2820.0,69.4
2880.0,71.0
2940.0,72.7
3000.0,71.8
3060.0,72.6
3120.0,73.2
3180.0,70.1
3240.0,71.3
3300.0,72.5
3360.0,67.5
3420.0,65.3
3480.0,63.2
3540.0,64.8
3600.0,65.2
3660.0,64.6
3720.0,65.3
3780.0,64.9
3840.0,63.8
3900.0,64.8
3960.0,64.0
4020.0,63.0
4080.0,61.5
4140.0,63.2
4200.0,63.6
4260.0,62.5
4320.0,64.1
4380.0,63.8
4440.0,62.5
4500.0,64.0
4560.0,64.3
4620.0,63.6
4680.0,63.6
4740.0,63.7
4800.0,62.6
4860.0,63.3
4920.0,62.5
4980.0,62.9
5040.0,63.7
5100.0,64.1
5160.0,63.0
5220.0,62.2
5280.0,61.9
5340.0,62.8
5400.0,64.5
5460.0,63.4
5520.0,62.7
5580.0,63.4
5640.0,62.2
5700.0,63.0
5760.0,63.3
5820.0,62.3
5880.0,63.3
5940.0,61.8
6000.0,60.8
6060.0,61.3
6120.0,61.3
6180.0,60.2
6240.0,61.7
6300.0,60.3
6360.0,62.2
6420.0,62.3
6480.0,62.4
6540.0,62.0
6600.0,60.8
6660.0,61.3
6720.0,60.4
6780.0,61.6
6840.0,60.8
6900.0,60.3
6960.0,60.8
7020.0,61.3
7080.0,60.8
7140.0,59.9
7200.0,60.7
7260.0,60.2
7320.0,60.7
7380.0,59.1
7440.0,60.2
7500.0,60.7
7560.0,59.9
7620.0,60.4
7680.0,60.4
7740.0,60.3
7800.0,59.4
7860.0,59.9
7920.0,59.9
7980.0,59.9
8040.0,60.3
8100.0,59.5
8160.0,58.2
8220.0,57.3
8280.0,59.2
8340.0,58.1
8400.0,57.4
8460.0,57.3
8520.0,59.0
8580.0,57.6
8640.0,57.3
8700.0,57.2
8760.0,58.5
8820.0,58.6
8880.0,57.9
8940.0,58.4
9000.0,56.4
9060.0,56.5
9120.0,56.0
9180.0,57.2
9240.0,57.3
9300.0,56.6
9360.0,56.8
9420.0,57.6
9480.0,56.9
9540.0,56.2
9600.0,57.2
9660.0,56.4
9720.0,57.2
9780.0,56.6
9840.0,54.0
9900.0,55.0
9960.0,56.1
10020.0,55.0
10080.0,55.4
10140.0,55.2
10200.0,54.9
10260.0,55.4
10320.0,55.6
10380.0,55.6
10440.0,55.9
10500.0,56.2
10560.0,56.2
10620.0,55.3
10680.0,55.6
10740.0,54.6
10800.0,53.6
10860.0,54.4
10920.0,54.1
10980.0,54.3
11040.0,54.7
11100.0,54.7
11160.0,54.5
11220.0,55.6
11280.0,54.5
11340.0,54.8
11400.0,56.1
11460.0,55.7
11520.0,55.0
11580.0,55.5
11640.0,55.2
11700.0,55.9
11760.0,55.7
11820.0,53.5
11880.0,53.9
11940.0,56.2
12000.0,56.6
12060.0,56.6
12120.0,56.7
12180.0,56.5
12240.0,56.5
12300.0,56.4
12360.0,57.4
12420.0,56.9
12480.0,56.7
12540.0,56.4
12600.0,57.8
12660.0,56.0
12720.0,55.7
12780.0,55.2
12840.0,54.5
12900.0,56.1
12960.0,56.2
13020.0,56.6
13080.0,55.8
13140.0,55.1
13200.0,55.8
13260.0,54.0
13320.0,55.9
13380.0,55.4
13440.0,56.6
13500.0,56.0
13560.0,57.3
13620.0,56.9
13680.0,56.9
13740.0,56.8
13800.0,55.7
13860.0,55.8
13920.0,56.1
13980.0,56.3
14040.0,57.6
14100.0,57.2
14160.0,56.7
14220.0,55.9
14280.0,56.2
14340.0,55.6
14400.0,55.6
14460.0,55.8
14520.0,57.1
14580.0,56.6
14640.0,56.7
14700.0,57.6
14760.0,57.0
14820.0,55.3
14880.0,56.1
14940.0,56.1
15000.0,54.5
15060.0,56.4
15120.0,56.9
15180.0,56.5
15240.0,56.8
15300.0,57.2
15360.0,57.1
15420.0,58.4
15480.0,57.8
15540.0,56.8
15600.0,58.3
15660.0,57.5
15720.0,56.3
15780.0,58.4
15840.0,58.3
15900.0,57.5
15960.0,58.0
16020.0,58.3
16080.0,58.0
16140.0,58.0
16200.0,58.7
16260.0,57.8
16320.0,58.2
16380.0,57.4
16440.0,57.0
16500.0,57.7
16560.0,58.5
16620.0,57.9
16680.0,57.8
16740.0,58.3
16800.0,57.3
16860.0,57.2
16920.0,57.2
16980.0,58.9
17040.0,58.6
17100.0,58.3
17160.0,57.6
17220.0,58.3
17280.0,57.9
17340.0,56.9
17400.0,54.5
17460.0,56.7
17520.0,57.9
17580.0,56.9
17640.0,57.0
17700.0,58.4
17760.0,58.2
17820.0,58.6
17880.0,56.7
17940.0,58.1
18000.0,58.2
18060.0,59.0
18120.0,59.1
18180.0,59.8
18240.0,59.6
18300.0,59.4
18360.0,59.2
18420.0,59.8
18480.0,59.9
18540.0,59.4
18600.0,59.3
18660.0,57.2
18720.0,56.8
18780.0,59.5
18840.0,60.1
18900.0,59.7
18960.0,60.3
19020.0,61.2
19080.0,60.3
19140.0,61.0
19200.0,61.0
19260.0,60.4
19320.0,60.3
19380.0,60.9
19440.0,61.7
19500.0,59.8
19560.0,60.4
19620.0,59.8
19680.0,60.4
19740.0,60.3
19800.0,60.0
19860.0,60.3
19920.0,60.2
19980.0,59.7
20040.0,59.5
20100.0,59.0
20160.0,59.8
20220.0,58.3
20280.0,59.0
20340.0,59.1
20400.0,59.4
20460.0,59.8
20520.0,59.5
20580.0,59.3
20640.0,58.8
20700.0,59.8
20760.0,59.0
20820.0,59.7
20880.0,59.9
20940.0,60.0
21000.0,60.1
21060.0,60.3
21120.0,60.3
21180.0,60.8
21240.0,61.0
21300.0,59.9
21360.0,59.4
21420.0,60.0
21480.0,59.0
21540.0,60.1
21600.0,60.7
21660.0,59.7
21720.0,60.3
21780.0,60.9
21840.0,60.0
21900.0,60.5
21960.0,60.3
22020.0,58.6
22080.0,58.6
22140.0,59.6
22200.0,58.4
22260.0,59.7
22320.0,59.7
22380.0,60.4
22440.0,59.6
22500.0,60.1
22560.0,59.6
22620.0,60.2
22680.0,59.9
22740.0,60.7
22800.0,59.9
22860.0,61.9
22920.0,60.3
22980.0,57.7
23040.0,57.5
23100.0,57.2
23160.0,57.0
23220.0,57.2
23280.0,57.8
23340.0,56.7
23400.0,56.0
23460.0,56.0
23520.0,57.2
23580.0,56.4
23640.0,55.5
23700.0,57.3
23760.0,57.1
23820.0,57.4
23880.0,55.4
23940.0,54.8
24000.0,54.2
24060.0,54.1
24120.0,53.0
24180.0,53.3
24240.0,51.8
24300.0,52.1
24360.0,50.7
24420.0,50.3
24480.0,50.6
24540.0,49.8
24600.0,46.1
24660.0,48.0
24720.0,44.3
24780.0,43.6
24840.0,45.7
24900.0,50.3
24960.0,50.3
25020.0,52.1
25080.0,51.6
25140.0,51.9
25200.0,53.0
25260.0,54.6
25320.0,53.4
25380.0,52.4
25440.0,50.8
25500.0,50.6
25560.0,49.9
25620.0,52.0
25680.0,53.9
25740.0,57.6
25800.0,56.7
25860.0,54.7
25920.0,54.2
25980.0,53.2
26040.0,54.8
26100.0,60.2
26160.0,61.1
26220.0,53.3
26280.0,56.5
26340.0,59.3
26400.0,59.0
26460.0,57.8
26520.0,46.1
26580.0,53.4
26640.0,55.5
26700.0,59.5
26760.0,58.4
26820.0,54.8
26880.0,57.9
26940.0,57.5
27000.0,58.4
27060.0,59.5
27120.0,59.8
27180.0,59.1
27240.0,57.4
27300.0,57.9
27360.0,57.5
27420.0,58.3
27480.0,58.5
27540.0,59.0
27600.0,58.7
27660.0,58.3
27720.0,59.0
27780.0,58.3
27840.0,58.0
27900.0,57.6
27960.0,57.9
28020.0,57.6
28080.0,57.6
28140.0,58.6
28200.0,59.1
28260.0,58.3
28320.0,57.3
28380.0,57.2
28440.0,59.0
28500.0,58.5
28560.0,58.7
28620.0,59.1
28680.0,58.4
28740.0,57.4
28800.0,58.4
28860.0,59.6
28920.0,57.8
28980.0,57.8
29040.0,58.1
29100.0,56.8
29160.0,57.0
29220.0,58.5
29280.0,56.7
29340.0,57.6
29400.0,59.1
29460.0,59.1
29520.0,59.6
29580.0,59.1
29640.0,57.9
29700.0,58.1
29760.0,59.2
29820.0,58.4
29880.0,58.7
29940.0,58.0
30000.0,57.2
30060.0,58.8
30120.0,58.2
30180.0,58.3
30240.0,57.3
30300.0,57.3
30360.0,57.2
30420.0,57.3
30480.0,56.7
30540.0,57.3
30600.0,56.9
30660.0,57.3
30720.0,57.0
30780.0,57.4
30840.0,57.8
30900.0,57.3
30960.0,58.1
31020.0,57.6
31080.0,58.7
31140.0,57.6
31200.0,57.5
31260.0,57.8
31320.0,57.4
31380.0,58.0
31440.0,58.5
31500.0,58.0
31560.0,57.6
31620.0,58.2
31680.0,57.7
31740.0,57.8
31800.0,57.3
31860.0,58.0
31920.0,57.4
31980.0,57.2
32040.0,57.5
32100.0,56.9
32160.0,56.8
32220.0,56.9
32280.0,56.5
32340.0,56.7
32400.0,56.6
32460.0,57.0
32520.0,56.7
32580.0,56.6
32640.0,56.9
32700.0,56.0
32760.0,57.7
32820.0,57.7
32880.0,57.7
32940.0,57.6
33000.0,57.1
33060.0,57.2
33120.0,57.0
33180.0,56.8
33240.0,56.0
33300.0,57.0
33360.0,53.7
33420.0,55.7
33480.0,56.8
33540.0,56.9
33600.0,57.8
33660.0,57.3
33720.0,57.0
33780.0,57.3
33840.0,57.8
33900.0,57.1
33960.0,56.6
34020.0,57.7
34080.0,57.3
34140.0,57.7
34200.0,56.2
34260.0,57.3
34320.0,55.7
34380.0,56.6
34440.0,56.2
34500.0,56.4
34560.0,56.9
34620.0,55.9
34680.0,56.4
34740.0,56.8
34800.0,56.5
34860.0,56.9
34920.0,56.8
34980.0,56.5
35040.0,57.3
35100.0,57.5
35160.0,56.5
35220.0,56.2
35280.0,56.4
35340.0,56.8
35400.0,56.8
35460.0,56.1
35520.0,56.6
35580.0,56.0
35640.0,56.1
35700.0,56.8
35760.0,56.6
35820.0,56.6
35880.0,56.9
35940.0,56.8
36000.0,56.2
36060.0,56.2
36120.0,56.4
36180.0,56.0
36240.0,56.4
36300.0,55.7
36360.0,56.2
36420.0,55.1
36480.0,55.9
36540.0,55.9
36600.0,56.4
36660.0,56.9
36720.0,56.3
36780.0,56.4
36840.0,56.0
36900.0,56.3
36960.0,57.3
37020.0,56.8
37080.0,57.0
37140.0,57.2
37200.0,56.6
37260.0,57.0
37320.0,57.4
37380.0,57.7
37440.0,57.5
37500.0,58.1
37560.0,57.0
37620.0,57.0
37680.0,57.4
37740.0,56.8
37800.0,57.5
37860.0,57.6
37920.0,57.5
37980.0,56.9
38040.0,56.6
38100.0,57.1
38160.0,57.4
38220.0,58.1
38280.0,58.4
38340.0,57.9
38400.0,58.1
38460.0,57.5
38520.0,58.4
38580.0,58.7
38640.0,58.1
38700.0,58.8
38760.0,58.4
38820.0,58.2
38880.0,58.7
38940.0,59.1
39000.0,57.4
39060.0,57.5
39120.0,58.0
39180.0,58.2
39240.0,57.7
39300.0,56.3
39360.0,58.1
39420.0,57.8
39480.0,58.4
39540.0,57.8
39600.0,57.6
39660.0,57.9
39720.0,58.4
39780.0,57.6
39840.0,57.8
39900.0,58.1
39960.0,57.5
40020.0,58.1
40080.0,58.3
40140.0,58.2
40200.0,58.8
40260.0,59.8
40320.0,58.3
40380.0,58.1
40440.0,58.6
40500.0,59.8
40560.0,59.8
40620.0,59.0
40680.0,58.6
40740.0,58.8
40800.0,59.1
40860.0,59.8
40920.0,58.9
40980.0,59.0
41040.0,58.5
41100.0,58.1
41160.0,58.5
41220.0,59.5
41280.0,59.0
41340.0,58.4
41400.0,59.7
41460.0,59.3
41520.0,59.4
41580.0,59.2
41640.0,59.4
41700.0,58.3
41760.0,59.1
41820.0,58.2
41880.0,59.2
41940.0,60.0
42000.0,59.5
42060.0,58.3
42120.0,59.3
42180.0,59.8
42240.0,59.7
42300.0,59.3
42360.0,59.0
42420.0,60.3
42480.0,59.5
42540.0,58.8
42600.0,60.1
42660.0,59.6
42720.0,59.3
42780.0,59.4
42840.0,58.8
42900.0,59.5
42960.0,58.9
43020.0,59.8
43080.0,59.6
43140.0,59.0
43200.0,59.8
43260.0,59.8
43320.0,58.7
43380.0,59.8
43440.0,60.1
43500.0,59.7
43560.0,60.9
43620.0,59.5
43680.0,58.5
43740.0,59.7
43800.0,60.2
43860.0,59.6
43920.0,60.5
43980.0,59.5
44040.0,60.0
44100.0,59.8
44160.0,60.0
44220.0,60.0
44280.0,60.2
44340.0,60.3
44400.0,60.0
44460.0,60.1
44520.0,60.5
44580.0,60.5
44640.0,59.5
44700.0,59.0
44760.0,58.6
44820.0,59.9
44880.0,60.4
44940.0,60.9
45000.0,59.2
45060.0,58.4
45120.0,57.5
45180.0,59.0
45240.0,59.9
45300.0,60.6
45360.0,56.3
45420.0,56.8
45480.0,58.8
45540.0,58.7
45600.0,59.4
45660.0,59.3
45720.0,59.3
45780.0,60.3
45840.0,60.2
45900.0,60.8
45960.0,59.8
46020.0,59.1
46080.0,58.1
46140.0,59.3
46200.0,59.8
46260.0,60.8
46320.0,58.9
46380.0,59.0
46440.0,59.2
46500.0,59.7
46560.0,60.7
46620.0,60.5
46680.0,60.5
46740.0,59.8
46800.0,58.9
46860.0,60.5
46920.0,59.4
46980.0,59.6
47040.0,60.0
47100.0,59.4
47160.0,60.1
47220.0,59.2
47280.0,60.7
47340.0,60.5
47400.0,58.9
47460.0,52.9
47520.0,58.1
47580.0,57.2
47640.0,58.5
47700.0,58.6
47760.0,58.4
47820.0,56.7
47880.0,57.6
47940.0,57.3
48000.0,58.8
48060.0,57.1
48120.0,59.6
48180.0,56.5
48240.0,57.6
48300.0,58.9
48360.0,58.6
48420.0,58.9
48480.0,58.3
48540.0,58.6
48600.0,59.0
48660.0,54.7
48720.0,56.5
48780.0,53.2
48840.0,52.8
48900.0,52.0
48960.0,52.1
49020.0,53.9
49080.0,53.3
49140.0,53.5
49200.0,58.5
49260.0,57.5
49320.0,57.9
49380.0,58.5
49440.0,59.9
49500.0,58.8
49560.0,59.1
49620.0,57.9
49680.0,57.9
49740.0,58.1
49800.0,58.6
49860.0,58.5
49920.0,57.9
49980.0,58.3
50040.0,58.3
50100.0,59.6
50160.0,59.2
50220.0,57.7
50280.0,58.9
50340.0,58.3
50400.0,58.3
50460.0,57.0
50520.0,57.6
50580.0,57.5
50640.0,57.9
50700.0,58.1
50760.0,58.8
50820.0,59.0
50880.0,58.5
50940.0,57.5
51000.0,58.1
51060.0,57.4
51120.0,58.5
51180.0,59.0
51240.0,57.2
51300.0,58.2
51360.0,57.9
51420.0,58.2
51480.0,58.2
51540.0,57.0
51600.0,55.9
51660.0,57.9
51720.0,58.3
51780.0,58.5
51840.0,58.0
51900.0,57.0
51960.0,56.6
52020.0,57.7
52080.0,56.6
52140.0,57.4
52200.0,58.1
52260.0,58.3
52320.0,58.5
52380.0,58.8
52440.0,58.1
52500.0,59.4
52560.0,56.9
52620.0,58.5
52680.0,59.7
52740.0,59.0
52800.0,58.6
52860.0,57.8
52920.0,57.6
52980.0,55.5
53040.0,56.9
53100.0,58.9
53160.0,57.2
53220.0,56.8
53280.0,58.9
53340.0,57.5
53400.0,56.8
53460.0,56.7
53520.0,58.5
53580.0,57.2
53640.0,57.1
53700.0,56.3
53760.0,56.2
53820.0,58.2
53880.0,57.9
53940.0,57.6
54000.0,58.2
54060.0,57.2
54120.0,56.9
54180.0,58.2
54240.0,57.4
54300.0,58.9
54360.0,58.1
54420.0,57.2
54480.0,58.7
54540.0,58.6
54600.0,58.6
54660.0,55.2
54720.0,58.5
54780.0,60.3
54840.0,58.4
54900.0,59.0
54960.0,57.8
55020.0,58.1
55080.0,57.7
55140.0,57.2
55200.0,57.8
55260.0,52.4
55320.0,53.9
55380.0,57.4
55440.0,55.3
55500.0,55.2
55560.0,56.5
55620.0,57.8
55680.0,58.3
55740.0,58.0
55800.0,53.5
55860.0,56.5
55920.0,49.9
55980.0,52.1
56040.0,57.0
56100.0,56.7
56160.0,54.6
56220.0,52.0
56280.0,53.7
56340.0,55.0
56400.0,56.5
56460.0,56.7
56520.0,55.7
56580.0,55.7
56640.0,55.3
56700.0,54.8
56760.0,57.8
56820.0,57.3
56880.0,57.3
56940.0,56.6
57000.0,59.6
57060.0,55.7
57120.0,56.5
57180.0,56.5
57240.0,59.0
57300.0,53.6
57360.0,51.3
57420.0,56.3
57480.0,59.3
57540.0,56.2
57600.0,56.9
57660.0,53.6
57720.0,54.6
57780.0,52.3
57840.0,56.1
57900.0,56.6
57960.0,57.9
58020.0,53.2
58080.0,52.8
58140.0,58.5
58200.0,58.8
58260.0,59.6
58320.0,55.9
58380.0,57.8
58440.0,58.1
58500.0,57.6
58560.0,59.2
58620.0,54.2
58680.0,52.7
58740.0,56.3
58800.0,56.3
58860.0,58.5
58920.0,59.0
58980.0,56.8
59040.0,57.3
59100.0,59.1
59160.0,56.4
59220.0,54.3
59280.0,58.6
59340.0,59.1
59400.0,57.8
59460.0,58.0
59520.0,57.9
59580.0,60.1
59640.0,57.5
59700.0,55.4
59760.0,58.7
59820.0,59.9
59880.0,57.4
59940.0,55.3
60000.0,55.1
60060.0,58.6
60120.0,58.8
60180.0,59.0
60240.0,56.9
60300.0,53.7
60360.0,63.0
60420.0,60.3
60480.0,57.0
60540.0,56.7
60600.0,56.8
60660.0,53.8
60720.0,59.4
60780.0,59.5
60840.0,-9999.0
60900.0,-9999.0
60960.0,-9999.0
61020.0,-9999.0
61080.0,-9999.0
61140.0,-9999.0
61200.0,-9999.0
61260.0,-9999.0
61320.0,-9999.0
61380.0,-9999.0
61440.0,-9999.0
61500.0,-9999.0
61560.0,-9999.0
61620.0,58.5
61680.0,56.2
61740.0,51.8
61800.0,55.5
61860.0,58.5
61920.0,56.9
61980.0,59.4
62040.0,58.1
62100.0,59.0
62160.0,59.0
62220.0,59.2
62280.0,58.6
62340.0,55.4
62400.0,57.3
62460.0,-9999.0
62520.0,-9999.0
62580.0,-9999.0
62640.0,-9999.0
62700.0,-9999.0
62760.0,-9999.0
62820.0,-9999.0
62880.0,-9999.0
62940.0,-9999.0
63000.0,-9999.0
63060.0,-9999.0
63120.0,-9999.0
63180.0,-9999.0
63240.0,-9999.0
63300.0,-9999.0
63360.0,-9999.0
63420.0,-9999.0
63480.0,-9999.0
63540.0,-9999.0
63600.0,-9999.0
63660.0,-9999.0
63720.0,-9999.0
63780.0,-9999.0
63840.0,-9999.0
63900.0,-9999.0
63960.0,-9999.0
64020.0,-9999.0
64080.0,-9999.0
64140.0,-9999.0
64200.0,-9999.0
64260.0,-9999.0
64320.0,-9999.0
64380.0,-9999.0
64440.0,-9999.0
64500.0,-9999.0
64560.0,-9999.0
64620.0,-9999.0
64680.0,-9999.0
64740.0,-9999.0
64800.0,-9999.0
64860.0,-9999.0
64920.0,-9999.0
64980.0,-9999.0
65040.0,-9999.0
65100.0,-9999.0
65160.0,-9999.0
65220.0,-9999.0
65280.0,-9999.0
65340.0,-9999.0
65400.0,-9999.0
65460.0,-9999.0
65520.0,-9999.0
65580.0,-9999.0
65640.0,-9999.0
65700.0,-9999.0
65760.0,-9999.0
65820.0,-9999.0
65880.0,-9999.0
65940.0,-9999.0
66000.0,-9999.0
66060.0,-9999.0
66120.0,-9999.0
66180.0,-9999.0
66240.0,-9999.0
66300.0,-9999.0
66360.0,-9999.0
66420.0,-9999.0
66480.0,-9999.0
66540.0,-9999.0
66600.0,-9999.0
66660.0,-9999.0
66720.0,-9999.0
66780.0,-9999.0
66840.0,-9999.0
66900.0,-9999.0
66960.0,-9999.0
67020.0,-9999.0
67080.0,-9999.0
67140.0,-9999.0
67200.0,-9999.0
67260.0,-9999.0
67320.0,-9999.0
67380.0,-9999.0
67440.0,-9999.0
67500.0,-9999.0
67560.0,-9999.0
67620.0,-9999.0
67680.0,-9999.0
67740.0,-9999.0
67800.0,-9999.0
67860.0,-9999.0
67920.0,-9999.0
67980.0,-9999.0
68040.0,-9999.0
68100.0,-9999.0
68160.0,-9999.0
68220.0,-9999.0
68280.0,-9999.0
68340.0,-9999.0
68400.0,-9999.0
68460.0,-9999.0
68520.0,-9999.0
68580.0,-9999.0
68640.0,-9999.0
68700.0,-9999.0
68760.0,-9999.0
68820.0,-9999.0
68880.0,-9999.0
68940.0,-9999.0
69000.0,-9999.0
69060.0,-9999.0
69120.0,-9999.0
69180.0,-9999.0
69240.0,-9999.0
69300.0,-9999.0
69360.0,-9999.0
69420.0,-9999.0
69480.0,-9999.0
69540.0,-9999.0
69600.0,-9999.0
69660.0,-9999.0
69720.0,-9999.0
69780.0,-9999.0
69840.0,-9999.0
69900.0,-9999.0
69960.0,-9999.0
70020.0,-9999.0
70080.0,-9999.0
70140.0,-9999.0
70200.0,-9999.0
70260.0,-9999.0
70320.0,-9999.0
70380.0,-9999.0
70440.0,-9999.0
70500.0,-9999.0
70560.0,-9999.0
70620.0,-9999.0
70680.0,-9999.0
70740.0,-9999.0
70800.0,-9999.0
70860.0,-9999.0
70920.0,-9999.0
70980.0,-9999.0
71040.0,-9999.0
71100.0,-9999.0
71160.0,-9999.0
71220.0,-9999.0
71280.0,-9999.0
71340.0,-9999.0
71400.0,-9999.0
71460.0,-9999.0
71520.0,-9999.0
71580.0,-9999.0
71640.0,-9999.0
71700.0,-9999.0
71760.0,-9999.0
71820.0,-9999.0
71880.0,-9999.0
71940.0,-9999.0
72000.0,-9999.0
72060.0,-9999.0
72120.0,-9999.0
72180.0,-9999.0
72240.0,-9999.0
72300.0,-9999.0
72360.0,-9999.0
72420.0,-9999.0
72480.0,-9999.0
72540.0,-9999.0
72600.0,-9999.0
72660.0,-9999.0
72720.0,-9999.0
72780.0,-9999.0
72840.0,-9999.0
72900.0,-9999.0
72960.0,-9999.0
73020.0,-9999.0
73080.0,-9999.0
73140.0,-9999.0
73200.0,-9999.0
73260.0,-9999.0
73320.0,-9999.0
73380.0,-9999.0
73440.0,-9999.0
73500.0,-9999.0
73560.0,-9999.0
73620.0,-9999.0
73680.0,-9999.0
73740.0,-9999.0
73800.0,-9999.0
73860.0,-9999.0
73920.0,-9999.0
73980.0,-9999.0
74040.0,-9999.0
74100.0,-9999.0
74160.0,-9999.0
74220.0,-9999.0
74280.0,-9999.0
74340.0,-9999.0
74400.0,-9999.0
74460.0,-9999.0
74520.0,-9999.0
74580.0,-9999.0
74640.0,-9999.0
74700.0,-9999.0
74760.0,-9999.0
74820.0,-9999.0
74880.0,-9999.0
74940.0,-9999.0
75000.0,-9999.0
75060.0,-9999.0
75120.0,-9999.0
75180.0,-9999.0
75240.0,-9999.0
75300.0,-9999.0
75360.0,-9999.0
75420.0,-9999.0
75480.0,-9999.0
75540.0,-9999.0
75600.0,-9999.0
75660.0,-9999.0
75720.0,-9999.0
75780.0,-9999.0
75840.0,-9999.0
75900.0,-9999.0
75960.0,-9999.0
76020.0,-9999.0
76080.0,-9999.0
76140.0,-9999.0
76200.0,-9999.0
76260.0,-9999.0
76320.0,-9999.0
76380.0,-9999.0
76440.0,-9999.0
76500.0,-9999.0
76560.0,-9999.0
76620.0,-9999.0
76680.0,-9999.0
76740.0,-9999.0
76800.0,-9999.0
76860.0,-9999.0
76920.0,-9999.0
76980.0,-9999.0
77040.0,-9999.0
77100.0,-9999.0
77160.0,-9999.0
77220.0,-9999.0
77280.0,-9999.0
77340.0,-9999.0
77400.0,-9999.0
77460.0,-9999.0
77520.0,-9999.0
77580.0,-9999.0
77640.0,-9999.0
77700.0,-9999.0
77760.0,-9999.0
77820.0,-9999.0
77880.0,-9999.0
77940.0,-9999.0
78000.0,-9999.0
78060.0,-9999.0
78120.0,-9999.0
78180.0,-9999.0
78240.0,-9999.0
78300.0,-9999.0
78360.0,-9999.0
78420.0,-9999.0
78480.0,-9999.0
78540.0,-9999.0
78600.0,-9999.0
78660.0,-9999.0
78720.0,-9999.0
78780.0,-9999.0
78840.0,-9999.0
78900.0,-9999.0
78960.0,-9999.0
79020.0,-9999.0
79080.0,-9999.0
79140.0,-9999.0
79200.0,-9999.0
79260.0,-9999.0
79320.0,-9999.0
79380.0,-9999.0
79440.0,-9999.0
79500.0,-9999.0
79560.0,-9999.0
79620.0,-9999.0
79680.0,-9999.0
79740.0,-9999.0
79800.0,-9999.0
79860.0,-9999.0
79920.0,-9999.0
79980.0,-9999.0
80040.0,-9999.0
80100.0,-9999.0
80160.0,-9999.0
80220.0,-9999.0
80280.0,-9999.0
80340.0,-9999.0
80400.0,-9999.0
80460.0,-9999.0
80520.0,-9999.0
80580.0,-9999.0
80640.0,-9999.0
80700.0,-9999.0
80760.0,-9999.0
80820.0,-9999.0
80880.0,-9999.0
80940.0,-9999.0
81000.0,-9999.0
81060.0,-9999.0
81120.0,-9999.0
81180.0,-9999.0
81240.0,-9999.0
81300.0,-9999.0
81360.0,-9999.0
81420.0,-9999.0
81480.0,-9999.0
81540.0,-9999.0
81600.0,-9999.0
81660.0,-9999.0
81720.0,-9999.0
81780.0,-9999.0
81840.0,-9999.0
81900.0,-9999.0
81960.0,-9999.0
82020.0,-9999.0
82080.0,-9999.0
82140.0,-9999.0
82200.0,-9999.0
82260.0,-9999.0
82320.0,-9999.0
82380.0,-9999.0
82440.0,-9999.0
82500.0,-9999.0
82560.0,-9999.0
82620.0,-9999.0
82680.0,-9999.0
82740.0,-9999.0
82800.0,-9999.0
82860.0,-9999.0
82920.0,-9999.0
82980.0,-9999.0
83040.0,-9999.0
83100.0,-9999.0
83160.0,-9999.0
83220.0,-9999.0
83280.0,-9999.0
83340.0,-9999.0
83400.0,-9999.0
83460.0,-9999.0
83520.0,-9999.0
83580.0,-9999.0
83640.0,-9999.0
83700.0,-9999.0
83760.0,-9999.0
83820.0,-9999.0
83880.0,-9999.0
83940.0,-9999.0
84000.0,-9999.0
84060.0,-9999.0
84120.0,-9999.0
84180.0,-9999.0
84240.0,-9999.0
84300.0,-9999.0
84360.0,-9999.0
84420.0,-9999.0
84480.0,-9999.0
84540.0,-9999.0
84600.0,-9999.0
84660.0,-9999.0
84720.0,-9999.0
84780.0,-9999.0
84840.0,-9999.0
84900.0,-9999.0
84960.0,-9999.0
85020.0,-9999.0
85080.0,-9999.0
85140.0,-9999.0
85200.0,-9999.0
85260.0,-9999.0
85320.0,-9999.0
85380.0,-9999.0
85440.0,-9999.0
85500.0,-9999.0
85560.0,-9999.0
85620.0,-9999.0
85680.0,-9999.0
85740.0,-9999.0
85800.0,-9999.0
85860.0,-9999.0
85920.0,-9999.0
85980.0,-9999.0
86040.0,-9999.0
86100.0,-9999.0
86160.0,-9999.0
86220.0,-9999.0
86280.0,-9999.0
86340.0,-9999.0
