33, 1001
Michael A Robinson, Chris Jernigan, Subi Thakali
NOAA ESRL Chemical Sciences Laboratory and CIRES, U. of Colorado
NOAA Iodide CIMS Instrument
USOS
1, 1
2024, 08, 14, 2024, 08, 15
1
starttime_UTC, seconds_past_midnight, seconds_of_day_since_00:00:00_UTC
1
1
-9999
N2O5_NOAACIMS, pptv, Gas_N2O5_InSitu_S_AVMR, 
0
18
PI_CONTACT_INFO: 325 Broadway, R/CSD 7, Boulder, Colorado 80305; michael.a.robinson@noaa.gov; chris.jernigan@noaa.gov;
PLATFORM: NOAA CSL Mobile Lab
LOCATION: SLC, Utah
ASSOCIATED_DATA: 1Hz data also available on request.
INSTRUMENT_INFO: NOAA I- ToF CIMS
DATA_INFO: All data in parts per trillion by volume (pptv). 1 Hz data is available upon request.
UNCERTAINTY: TBD
ULOD_FLAG: -7777
ULOD_VALUE: N/A
LLOD_FLAG: -8888
LLOD_VALUE: N/A
DM_CONTACT_INFO: Nathan Howard; nathan.h.howard@noaa.gov
PROJECT_INFO: USOS, summer 2024. https://csl.noaa.gov/groups/csl7/measurements/2024usos/
STIPULATIONS_ON_USE: Users are strongly encouraged to contact the PI for proper data usage.
OTHER_COMMENTS: 
REVISION: RA
RA: Preliminary Data; For in-field use only
starttime_UTC, N2O5_NOAACIMS
     0, -9999.000
    60, -9999.000
   120, -9999.000
   180, -9999.000
   240, -9999.000
   300, -9999.000
   360, -9999.000
   420, -9999.000
   480, -9999.000
   540, -9999.000
   600, -9999.000
   660, -9999.000
   720, -9999.000
   780, -9999.000
   840, -9999.000
   900, -9999.000
   960, -9999.000
  1020, -9999.000
  1080, -9999.000
  1140, -9999.000
  1200, -9999.000
  1260, -9999.000
  1320, -9999.000
  1380, -9999.000
  1440, -9999.000
  1500, -9999.000
  1560, -9999.000
  1620, -9999.000
  1680, -9999.000
  1740, -9999.000
  1800, -9999.000
  1860, -9999.000
  1920, -9999.000
  1980, -9999.000
  2040, -9999.000
  2100, -9999.000
  2160, -9999.000
  2220, -9999.000
  2280, -9999.000
  2340, -9999.000
  2400, -9999.000
  2460, -9999.000
  2520, -9999.000
  2580, -9999.000
  2640, -9999.000
  2700, -9999.000
  2760, -9999.000
  2820, -9999.000
  2880, -9999.000
  2940, -9999.000
  3000, -9999.000
  3060, -9999.000
  3120, -9999.000
  3180, -9999.000
  3240, -9999.000
  3300, -9999.000
  3360, -9999.000
  3420, -9999.000
  3480, -9999.000
  3540, -9999.000
  3600, -9999.000
  3660, -9999.000
  3720, -9999.000
  3780, -9999.000
  3840, -9999.000
  3900, -9999.000
  3960, -9999.000
  4020, -9999.000
  4080, -9999.000
  4140, -9999.000
  4200, -9999.000
  4260, -9999.000
  4320, -9999.000
  4380, -9999.000
  4440, -9999.000
  4500, -9999.000
  4560, -9999.000
  4620, -9999.000
  4680, -9999.000
  4740, -9999.000
  4800, -9999.000
  4860, -9999.000
  4920, -9999.000
  4980, -9999.000
  5040, -9999.000
  5100, -9999.000
  5160, -9999.000
  5220, -9999.000
  5280, -9999.000
  5340, -9999.000
  5400, -9999.000
  5460, -9999.000
  5520,  0.108
  5580,  0.078
  5640,  0.105
  5700,  0.072
  5760,  0.014
  5820,  0.032
  5880,  0.090
  5940,  0.085
  6000,  0.045
  6060,  0.100
  6120,  0.122
  6180,  0.068
  6240,  0.063
  6300,  0.084
  6360, -0.006
  6420,  0.142
  6480,  0.126
  6540,  0.138
  6600,  0.096
  6660,  0.095
  6720,  0.071
  6780,  0.091
  6840,  0.087
  6900,  0.163
  6960, -9999.000
  7020,  0.045
  7080,  0.119
  7140,  0.131
  7200,  0.160
  7260,  0.192
  7320,  0.161
  7380,  0.131
  7440,  0.156
  7500,  0.218
  7560,  0.272
  7620,  0.198
  7680,  0.237
  7740,  0.492
  7800,  0.921
  7860,  0.937
  7920,  0.935
  7980,  0.975
  8040,  1.036
  8100,  0.930
  8160,  1.003
  8220,  0.883
  8280,  0.959
  8340,  0.601
  8400,  0.577
  8460,  0.520
  8520,  0.714
  8580,  0.527
  8640,  0.316
  8700,  0.405
  8760,  0.336
  8820, -9999.000
  8880,  0.352
  8940,  0.367
  9000,  0.467
  9060,  0.341
  9120,  0.387
  9180,  0.336
  9240,  0.352
  9300,  0.336
  9360,  0.378
  9420,  0.307
  9480,  0.453
  9540,  0.495
  9600,  0.508
  9660,  0.465
  9720,  0.379
  9780,  0.376
  9840,  0.474
  9900,  0.407
  9960,  0.387
 10020,  0.515
 10080,  0.616
 10140,  0.538
 10200,  0.461
 10260,  0.618
 10320,  0.419
 10380,  0.517
 10440,  0.594
 10500,  0.570
 10560,  0.543
 10620,  0.545
 10680,  0.463
 10740,  0.633
 10800,  0.481
 10860,  0.618
 10920,  0.578
 10980,  0.529
 11040,  0.664
 11100,  0.780
 11160,  0.644
 11220,  0.570
 11280,  0.596
 11340,  0.622
 11400,  0.447
 11460,  0.601
 11520,  0.671
 11580,  0.683
 11640,  0.632
 11700,  0.741
 11760,  0.686
 11820,  0.687
 11880,  0.943
 11940,  0.762
 12000,  0.770
 12060,  0.577
 12120,  0.694
 12180,  0.694
 12240,  1.018
 12300,  1.540
 12360,  1.385
 12420,  1.857
 12480, -9999.000
 12540,  1.943
 12600,  0.894
 12660,  1.182
 12720,  3.843
 12780,  2.971
 12840,  6.612
 12900,  4.031
 12960,  4.001
 13020,  4.664
 13080,  3.330
 13140,  3.437
 13200,  4.802
 13260,  5.815
 13320,  3.495
 13380,  3.185
 13440,  2.403
 13500,  2.065
 13560,  1.845
 13620,  1.956
 13680,  2.722
 13740,  3.492
 13800,  4.137
 13860,  2.458
 13920,  2.522
 13980,  4.102
 14040,  3.611
 14100,  4.010
 14160,  4.559
 14220,  2.886
 14280,  2.714
 14340, -9999.000
 14400,  1.520
 14460,  1.328
 14520,  1.018
 14580,  1.297
 14640,  0.610
 14700,  0.875
 14760,  1.079
 14820,  1.860
 14880,  1.660
 14940,  1.067
 15000,  1.209
 15060,  0.888
 15120,  1.044
 15180,  0.908
 15240,  1.396
 15300,  1.149
 15360,  0.915
 15420,  0.894
 15480,  0.911
 15540,  1.132
 15600,  1.069
 15660,  0.876
 15720,  1.294
 15780,  0.988
 15840,  0.945
 15900,  0.964
 15960,  0.900
 16020,  0.826
 16080,  0.920
 16140,  0.787
 16200, -9999.000
 16260,  0.841
 16320,  1.089
 16380,  1.199
 16440,  1.197
 16500,  1.151
 16560,  1.193
 16620,  1.218
 16680,  1.206
 16740,  1.196
 16800,  1.019
 16860,  0.961
 16920,  0.979
 16980,  1.102
 17040,  1.283
 17100,  1.329
 17160,  1.170
 17220,  1.033
 17280,  1.269
 17340,  1.071
 17400,  1.233
 17460,  1.436
 17520,  1.266
 17580,  1.208
 17640,  1.374
 17700,  0.906
 17760,  1.461
 17820,  0.974
 17880,  1.641
 17940,  1.253
 18000,  1.269
 18060,  1.275
 18120,  1.723
 18180,  1.587
 18240,  1.493
 18300,  1.578
 18360,  1.462
 18420,  1.670
 18480,  1.831
 18540,  1.674
 18600,  1.340
 18660,  1.393
 18720,  1.340
 18780,  1.361
 18840,  1.476
 18900,  1.600
 18960,  1.730
 19020,  1.812
 19080,  1.529
 19140,  1.541
 19200,  1.436
 19260,  1.668
 19320,  1.424
 19380,  1.435
 19440,  1.808
 19500,  1.878
 19560,  1.403
 19620,  1.445
 19680,  1.589
 19740,  1.761
 19800,  1.399
 19860,  1.654
 19920,  2.000
 19980,  1.573
 20040,  1.535
 20100,  1.602
 20160,  1.930
 20220,  1.665
 20280,  1.871
 20340,  2.047
 20400,  2.052
 20460,  1.670
 20520,  2.012
 20580,  1.492
 20640,  1.908
 20700,  2.125
 20760,  1.872
 20820,  1.782
 20880,  2.505
 20940,  2.403
 21000,  1.953
 21060,  2.381
 21120,  2.558
 21180,  2.529
 21240,  2.381
 21300,  2.050
 21360,  2.185
 21420,  2.279
 21480,  1.995
 21540,  1.755
 21600,  1.643
 21660,  2.137
 21720,  1.999
 21780,  1.710
 21840,  2.369
 21900,  2.127
 21960,  1.876
 22020,  2.191
 22080,  2.016
 22140,  2.477
 22200,  1.957
 22260,  2.109
 22320,  2.441
 22380,  2.250
 22440,  1.789
 22500,  1.924
 22560,  2.192
 22620,  1.570
 22680,  1.983
 22740,  2.105
 22800,  1.776
 22860,  1.986
 22920,  1.719
 22980,  2.585
 23040,  1.542
 23100,  1.962
 23160,  2.392
 23220,  2.146
 23280,  2.563
 23340,  2.571
 23400,  3.334
 23460,  2.860
 23520,  2.608
 23580, -9999.000
 23640,  2.809
 23700,  2.564
 23760,  2.938
 23820,  3.622
 23880,  3.201
 23940,  2.620
 24000,  2.811
 24060,  1.956
 24120,  1.588
 24180,  2.537
 24240,  2.521
 24300,  2.040
 24360,  3.337
 24420,  1.864
 24480,  2.553
 24540,  2.466
 24600,  2.542
 24660,  2.256
 24720,  2.370
 24780,  2.517
 24840,  2.304
 24900,  2.198
 24960,  2.939
 25020,  2.845
 25080,  2.798
 25140,  2.651
 25200,  2.378
 25260,  2.090
 25320,  2.248
 25380,  2.537
 25440, -9999.000
 25500,  3.586
 25560,  3.873
 25620,  3.539
 25680,  3.419
 25740,  2.962
 25800,  2.910
 25860,  2.557
 25920,  2.676
 25980,  2.602
 26040,  2.505
 26100,  2.785
 26160,  2.494
 26220,  2.591
 26280,  2.561
 26340,  2.687
 26400,  2.513
 26460,  2.436
 26520,  1.589
 26580,  2.326
 26640,  2.570
 26700,  3.367
 26760,  2.540
 26820,  2.707
 26880,  2.600
 26940,  2.556
 27000,  2.379
 27060,  2.496
 27120,  3.130
 27180,  3.315
 27240,  2.879
 27300, -9999.000
 27360,  2.751
 27420,  3.346
 27480,  2.773
 27540,  2.803
 27600,  3.085
 27660,  3.186
 27720,  3.070
 27780,  3.340
 27840,  3.301
 27900,  3.230
 27960,  3.173
 28020,  3.028
 28080,  2.788
 28140,  2.978
 28200,  2.822
 28260,  2.922
 28320,  3.595
 28380,  2.948
 28440,  3.126
 28500,  3.192
 28560,  2.677
 28620,  3.210
 28680,  3.910
 28740,  2.813
 28800,  3.213
 28860,  3.064
 28920,  2.969
 28980,  2.886
 29040,  2.643
 29100,  3.246
 29160,  2.576
 29220,  2.694
 29280,  2.498
 29340,  2.818
 29400,  2.242
 29460,  2.267
 29520,  2.808
 29580,  2.761
 29640,  2.797
 29700,  3.091
 29760,  3.046
 29820,  2.273
 29880,  2.583
 29940,  2.809
 30000,  2.592
 30060,  2.746
 30120,  2.764
 30180,  2.376
 30240,  2.940
 30300,  2.302
 30360,  2.595
 30420,  2.228
 30480,  2.806
 30540,  2.632
 30600,  2.396
 30660,  1.881
 30720,  2.675
 30780,  2.301
 30840,  2.217
 30900,  2.856
 30960, -9999.000
 31020,  1.687
 31080,  1.881
 31140,  2.180
 31200,  2.296
 31260,  2.182
 31320,  2.578
 31380,  2.460
 31440,  2.756
 31500,  3.243
 31560,  2.727
 31620,  2.738
 31680,  2.130
 31740,  2.421
 31800,  2.156
 31860,  2.819
 31920,  2.581
 31980,  2.378
 32040,  2.902
 32100,  2.329
 32160,  2.545
 32220,  3.250
 32280,  2.435
 32340,  2.220
 32400,  2.207
 32460,  2.170
 32520,  2.594
 32580,  2.435
 32640,  2.346
 32700,  2.658
 32760,  2.324
 32820, -9999.000
 32880,  2.124
 32940,  2.650
 33000,  2.682
 33060,  2.596
 33120,  3.134
 33180,  2.623
 33240,  2.351
 33300,  2.664
 33360,  2.619
 33420,  2.569
 33480,  2.079
 33540,  2.464
 33600,  2.770
 33660,  2.561
 33720,  2.604
 33780,  3.044
 33840,  2.785
 33900,  3.023
 33960,  2.663
 34020,  2.775
 34080,  2.908
 34140,  3.047
 34200,  2.772
 34260,  2.336
 34320,  2.683
 34380,  2.659
 34440,  2.511
 34500,  3.227
 34560,  2.829
 34620,  3.071
 34680, -9999.000
 34740,  2.201
 34800,  2.323
 34860,  2.450
 34920,  2.640
 34980,  2.280
 35040,  2.362
 35100,  2.468
 35160,  2.116
 35220,  2.221
 35280,  2.438
 35340,  2.318
 35400,  2.296
 35460,  1.958
 35520,  1.919
 35580,  1.693
 35640,  1.939
 35700,  2.158
 35760,  2.105
 35820,  2.350
 35880,  1.896
 35940,  2.017
 36000,  2.240
 36060,  1.897
 36120,  1.976
 36180,  2.067
 36240,  2.065
 36300,  1.949
 36360,  1.938
 36420,  1.917
 36480,  2.345
 36540,  1.626
 36600,  1.742
 36660,  1.724
 36720,  1.333
 36780,  1.861
 36840,  1.742
 36900,  1.863
 36960,  1.687
 37020,  1.753
 37080,  1.625
 37140,  1.490
 37200,  1.421
 37260,  1.576
 37320,  1.478
 37380,  1.180
 37440,  1.271
 37500,  1.672
 37560,  1.455
 37620,  1.652
 37680,  1.632
 37740,  1.310
 37800,  0.963
 37860,  1.517
 37920,  1.318
 37980,  1.376
 38040,  1.591
 38100,  1.363
 38160,  1.761
 38220,  1.302
 38280,  1.402
 38340,  1.294
 38400,  1.339
 38460,  1.337
 38520,  1.230
 38580,  1.187
 38640,  1.388
 38700,  1.190
 38760,  1.221
 38820,  1.238
 38880,  1.076
 38940,  1.001
 39000,  1.326
 39060,  1.146
 39120,  1.079
 39180,  1.185
 39240,  1.105
 39300,  1.468
 39360,  1.329
 39420,  1.226
 39480,  1.051
 39540,  1.256
 39600,  1.292
 39660,  1.098
 39720,  1.457
 39780,  1.547
 39840,  1.332
 39900,  1.427
 39960,  1.362
 40020,  1.171
 40080,  1.359
 40140,  1.336
 40200,  1.489
 40260,  1.371
 40320,  1.365
 40380,  1.442
 40440,  1.536
 40500,  1.254
 40560,  1.293
 40620,  1.300
 40680,  1.318
 40740,  1.123
 40800,  1.376
 40860,  1.170
 40920,  1.196
 40980,  1.331
 41040,  1.418
 41100,  1.325
 41160,  1.377
 41220,  1.338
 41280,  1.278
 41340,  1.410
 41400,  1.305
 41460,  1.185
 41520,  1.044
 41580,  1.116
 41640,  1.644
 41700,  1.116
 41760,  1.363
 41820,  1.082
 41880,  1.412
 41940,  1.354
 42000,  1.312
 42060, -9999.000
 42120,  1.421
 42180,  1.348
 42240,  1.322
 42300,  1.175
 42360,  1.160
 42420,  1.552
 42480,  1.573
 42540,  1.022
 42600,  1.236
 42660,  1.144
 42720,  1.316
 42780,  0.919
 42840,  1.149
 42900,  1.634
 42960,  1.632
 43020,  1.246
 43080,  1.108
 43140,  1.198
 43200,  1.047
 43260,  0.823
 43320,  1.185
 43380,  1.349
 43440,  1.272
 43500,  1.241
 43560,  1.362
 43620,  1.105
 43680,  1.201
 43740,  1.090
 43800,  1.038
 43860,  1.605
 43920, -9999.000
 43980,  1.399
 44040,  1.022
 44100,  1.010
 44160,  1.070
 44220,  0.922
 44280,  0.883
 44340,  1.128
 44400,  1.008
 44460,  1.305
 44520,  1.355
 44580,  1.401
 44640,  1.072
 44700,  0.960
 44760,  1.038
 44820,  1.375
 44880,  1.352
 44940,  1.319
 45000,  0.732
 45060,  1.125
 45120,  1.003
 45180,  1.269
 45240,  1.258
 45300,  1.072
 45360,  0.919
 45420,  1.211
 45480,  0.793
 45540,  1.096
 45600,  0.957
 45660,  0.971
 45720,  0.998
 45780, -9999.000
 45840,  7.171
 45900,  5.608
 45960,  6.326
 46020,  6.653
 46080,  7.055
 46140,  6.150
 46200,  5.737
 46260,  4.673
 46320,  3.430
 46380,  2.256
 46440,  2.862
 46500,  2.885
 46560,  2.360
 46620,  2.267
 46680,  2.878
 46740,  4.207
 46800, -9999.000
 46860, -9999.000
 46920, -9999.000
 46980, -9999.000
 47040, -9999.000
 47100, -9999.000
 47160, -9999.000
 47220, -9999.000
 47280, -9999.000
 47340, -9999.000
 47400, -9999.000
 47460, -9999.000
 47520, -9999.000
 47580, -9999.000
 47640, -9999.000
 47700, -9999.000
 47760, -9999.000
 47820, -9999.000
 47880, -9999.000
 47940, -9999.000
 48000, -9999.000
 48060, -9999.000
 48120, -9999.000
 48180, -9999.000
 48240, -9999.000
 48300, -9999.000
 48360, -9999.000
 48420, -9999.000
 48480, -9999.000
 48540, -9999.000
 48600, -9999.000
 48660, -9999.000
 48720, -9999.000
 48780, -9999.000
 48840, -9999.000
 48900, -9999.000
 48960, -9999.000
 49020, -9999.000
 49080, -9999.000
 49140, -9999.000
 49200, -9999.000
 49260, -9999.000
 49320, -9999.000
 49380, -9999.000
 49440, -9999.000
 49500, -9999.000
 49560, -9999.000
 49620, -9999.000
 49680, -9999.000
 49740, -9999.000
 49800, -9999.000
 49860, -9999.000
 49920, -9999.000
 49980, -9999.000
 50040, -9999.000
 50100, -9999.000
 50160, -9999.000
 50220, -9999.000
 50280, -9999.000
 50340, -9999.000
 50400, -9999.000
 50460, -9999.000
 50520, -9999.000
 50580, -9999.000
 50640, -9999.000
 50700, -9999.000
 50760, -9999.000
 50820, -9999.000
 50880, -9999.000
 50940, -9999.000
 51000, -9999.000
 51060, -9999.000
 51120, -9999.000
 51180, -9999.000
 51240, -9999.000
 51300, -9999.000
 51360, -9999.000
 51420, -9999.000
 51480, -9999.000
 51540, -9999.000
 51600, -9999.000
 51660, -9999.000
 51720, -9999.000
 51780, -9999.000
 51840, -9999.000
 51900, -9999.000
 51960, -9999.000
 52020, -9999.000
 52080, -9999.000
 52140, -9999.000
 52200, -9999.000
 52260, -9999.000
 52320, -9999.000
 52380, -9999.000
 52440, -9999.000
 52500, -9999.000
 52560, -9999.000
 52620, -9999.000
 52680, -9999.000
 52740, -9999.000
 52800, -9999.000
 52860, -9999.000
 52920, -9999.000
 52980, -9999.000
 53040, -9999.000
 53100, -9999.000
 53160, -9999.000
 53220, -9999.000
 53280, -9999.000
 53340, -9999.000
 53400, -9999.000
 53460, -9999.000
 53520, -9999.000
 53580, -9999.000
 53640, -9999.000
 53700, -9999.000
 53760, -9999.000
 53820, -9999.000
 53880, -9999.000
 53940, -9999.000
 54000, -9999.000
 54060, -9999.000
 54120, -9999.000
 54180, -9999.000
 54240, -9999.000
 54300, -9999.000
 54360, -9999.000
 54420, -9999.000
 54480, -9999.000
 54540, -9999.000
 54600, -9999.000
 54660, -9999.000
 54720, -9999.000
 54780, -9999.000
 54840, -9999.000
 54900, -9999.000
 54960, -9999.000
 55020, -9999.000
 55080, -9999.000
 55140, -9999.000
 55200, -9999.000
 55260, -9999.000
 55320, -9999.000
 55380, -9999.000
 55440, -9999.000
 55500, -9999.000
 55560, -9999.000
 55620, -9999.000
 55680, -9999.000
 55740, -9999.000
 55800, -9999.000
 55860, -9999.000
 55920, -9999.000
 55980, -9999.000
 56040, -9999.000
 56100, -9999.000
 56160, -9999.000
 56220, -9999.000
 56280, -9999.000
 56340, -9999.000
 56400, -9999.000
 56460, -9999.000
 56520, -9999.000
 56580, -9999.000
 56640, -9999.000
 56700, -9999.000
 56760, -9999.000
 56820, -9999.000
 56880, -9999.000
 56940, -9999.000
 57000, -9999.000
 57060, -9999.000
 57120, -9999.000
 57180, -9999.000
 57240, -9999.000
 57300, -9999.000
 57360, -9999.000
 57420, -9999.000
 57480, -9999.000
 57540, -9999.000
 57600, -9999.000
 57660, -9999.000
 57720, -9999.000
 57780, -9999.000
 57840, -9999.000
 57900, -9999.000
 57960, -9999.000
 58020, -9999.000
 58080, -9999.000
 58140, -9999.000
 58200, -9999.000
 58260, -9999.000
 58320, -9999.000
 58380, -9999.000
 58440, -9999.000
 58500, -9999.000
 58560, -9999.000
 58620, -9999.000
 58680, -9999.000
 58740, -9999.000
 58800, -9999.000
 58860, -9999.000
 58920, -9999.000
 58980, -9999.000
 59040, -9999.000
 59100, -9999.000
 59160, -9999.000
 59220, -9999.000
 59280, -9999.000
 59340, -9999.000
 59400, -9999.000
 59460, -9999.000
 59520, -9999.000
 59580, -9999.000
 59640, -9999.000
 59700, -9999.000
 59760, -9999.000
 59820, -9999.000
 59880, -9999.000
 59940, -9999.000
 60000, -9999.000
 60060, -9999.000
 60120, -9999.000
 60180, -9999.000
 60240, -9999.000
 60300, -9999.000
 60360, -9999.000
 60420, -9999.000
 60480, -9999.000
 60540, -9999.000
 60600, -9999.000
 60660, -9999.000
 60720, -9999.000
 60780, -9999.000
 60840, -9999.000
 60900, -9999.000
 60960, -9999.000
 61020, -9999.000
 61080, -9999.000
 61140, -9999.000
 61200, -9999.000
 61260, -9999.000
 61320, -9999.000
 61380, -9999.000
 61440, -9999.000
 61500, -9999.000
 61560, -9999.000
 61620, -9999.000
 61680, -9999.000
 61740, -9999.000
 61800, -9999.000
 61860, -9999.000
 61920, -9999.000
 61980, -9999.000
 62040, -9999.000
 62100, -9999.000
 62160, -9999.000
 62220, -9999.000
 62280, -9999.000
 62340, -9999.000
 62400, -9999.000
 62460, -9999.000
 62520, -9999.000
 62580, -9999.000
 62640, -9999.000
 62700, -9999.000
 62760, -9999.000
 62820, -9999.000
 62880, -9999.000
 62940, -9999.000
 63000, -9999.000
 63060, -9999.000
 63120, -9999.000
 63180, -9999.000
 63240, -9999.000
 63300, -9999.000
 63360, -9999.000
 63420, -9999.000
 63480, -9999.000
 63540, -9999.000
 63600, -9999.000
 63660, -9999.000
 63720, -9999.000
 63780, -9999.000
 63840, -9999.000
 63900, -9999.000
 63960, -9999.000
 64020, -9999.000
 64080, -9999.000
 64140, -9999.000
 64200, -9999.000
 64260, -9999.000
 64320, -9999.000
 64380, -9999.000
 64440, -9999.000
 64500, -9999.000
 64560, -9999.000
 64620, -9999.000
 64680, -9999.000
 64740, -9999.000
 64800, -9999.000
 64860, -9999.000
 64920, -9999.000
 64980, -9999.000
 65040, -9999.000
 65100, -9999.000
 65160, -9999.000
 65220, -9999.000
 65280, -9999.000
 65340, -9999.000
 65400, -9999.000
 65460, -9999.000
 65520, -9999.000
 65580, -9999.000
 65640, -9999.000
 65700, -9999.000
 65760, -9999.000
 65820, -9999.000
 65880, -9999.000
 65940, -9999.000
 66000, -9999.000
 66060, -9999.000
 66120, -9999.000
 66180, -9999.000
 66240, -9999.000
 66300, -9999.000
 66360, -9999.000
 66420, -9999.000
 66480, -9999.000
 66540, -9999.000
 66600, -9999.000
 66660, -9999.000
 66720, -9999.000
 66780, -9999.000
 66840, -9999.000
 66900, -9999.000
 66960, -9999.000
 67020, -9999.000
 67080, -9999.000
 67140, -9999.000
 67200, -9999.000
 67260, -9999.000
 67320, -9999.000
 67380, -9999.000
 67440, -9999.000
 67500, -9999.000
 67560, -9999.000
 67620, -9999.000
 67680, -9999.000
 67740, -9999.000
 67800, -9999.000
 67860, -9999.000
 67920, -9999.000
 67980, -9999.000
 68040, -9999.000
 68100, -9999.000
 68160, -9999.000
 68220, -9999.000
 68280, -9999.000
 68340, -9999.000
 68400, -9999.000
 68460, -9999.000
 68520, -9999.000
 68580, -9999.000
 68640, -9999.000
 68700, -9999.000
 68760, -9999.000
 68820, -9999.000
 68880, -9999.000
 68940, -9999.000
 69000, -9999.000
 69060, -9999.000
 69120, -9999.000
 69180, -9999.000
 69240, -9999.000
 69300, -9999.000
 69360, -9999.000
 69420, -9999.000
 69480, -9999.000
 69540, -9999.000
 69600, -9999.000
 69660, -9999.000
 69720, -9999.000
 69780, -9999.000
 69840, -9999.000
 69900, -9999.000
 69960, -9999.000
 70020, -9999.000
 70080, -9999.000
 70140, -9999.000
 70200, -9999.000
 70260, -9999.000
 70320, -9999.000
 70380, -9999.000
 70440, -9999.000
 70500, -9999.000
 70560, -9999.000
 70620, -9999.000
 70680, -9999.000
 70740, -9999.000
 70800, -9999.000
 70860, -9999.000
 70920, -9999.000
 70980, -9999.000
 71040, -9999.000
 71100, -9999.000
 71160, -9999.000
 71220, -9999.000
 71280, -9999.000
 71340, -9999.000
 71400, -9999.000
 71460, -9999.000
 71520, -9999.000
 71580, -9999.000
 71640, -9999.000
 71700, -9999.000
 71760, -9999.000
 71820, -9999.000
 71880, -9999.000
 71940, -9999.000
 72000, -9999.000
 72060, -9999.000
 72120, -9999.000
 72180, -9999.000
 72240, -9999.000
 72300, -9999.000
 72360, -9999.000
 72420, -9999.000
 72480, -9999.000
 72540, -9999.000
 72600, -9999.000
 72660, -9999.000
 72720, -9999.000
 72780, -9999.000
 72840, -9999.000
 72900, -9999.000
 72960, -9999.000
 73020, -9999.000
 73080, -9999.000
 73140, -9999.000
 73200, -9999.000
 73260, -9999.000
 73320, -9999.000
 73380, -9999.000
 73440, -9999.000
 73500, -9999.000
 73560, -9999.000
 73620, -9999.000
 73680, -9999.000
 73740, -9999.000
 73800, -9999.000
 73860, -9999.000
 73920, -9999.000
 73980, -9999.000
 74040, -9999.000
 74100, -9999.000
 74160, -9999.000
 74220, -9999.000
 74280, -9999.000
 74340, -9999.000
 74400, -9999.000
 74460, -9999.000
 74520, -9999.000
 74580, -9999.000
 74640, -9999.000
 74700, -9999.000
 74760, -9999.000
 74820, -9999.000
 74880, -9999.000
 74940, -9999.000
 75000, -9999.000
 75060, -9999.000
 75120, -9999.000
 75180, -9999.000
 75240, -9999.000
 75300, -9999.000
 75360, -9999.000
 75420, -9999.000
 75480, -9999.000
 75540, -9999.000
 75600, -9999.000
 75660, -9999.000
 75720, -9999.000
 75780, -9999.000
 75840, -9999.000
 75900, -9999.000
 75960, -9999.000
 76020, -9999.000
 76080, -9999.000
 76140, -9999.000
 76200, -9999.000
 76260, -9999.000
 76320, -9999.000
 76380, -9999.000
 76440, -9999.000
 76500, -9999.000
 76560, -9999.000
 76620, -9999.000
 76680, -9999.000
 76740, -9999.000
 76800, -9999.000
 76860, -9999.000
 76920, -9999.000
 76980, -9999.000
 77040, -9999.000
 77100, -9999.000
 77160, -9999.000
 77220, -9999.000
 77280, -9999.000
 77340, -9999.000
 77400, -9999.000
 77460, -9999.000
 77520, -9999.000
 77580, -9999.000
 77640, -9999.000
 77700, -9999.000
 77760, -9999.000
 77820, -9999.000
 77880, -9999.000
 77940, -9999.000
 78000, -9999.000
 78060, -9999.000
 78120, -9999.000
 78180, -9999.000
 78240, -9999.000
 78300, -9999.000
 78360, -9999.000
 78420, -9999.000
 78480, -9999.000
 78540, -9999.000
 78600, -9999.000
 78660, -9999.000
 78720, -9999.000
 78780, -9999.000
 78840, -9999.000
 78900, -9999.000
 78960, -9999.000
 79020, -9999.000
 79080, -9999.000
 79140, -9999.000
 79200, -9999.000
 79260, -9999.000
 79320, -9999.000
 79380, -9999.000
 79440, -9999.000
 79500, -9999.000
 79560, -9999.000
 79620, -9999.000
 79680, -9999.000
 79740, -9999.000
 79800, -9999.000
 79860, -9999.000
 79920, -9999.000
 79980, -9999.000
 80040, -9999.000
 80100, -9999.000
 80160, -9999.000
 80220, -9999.000
 80280, -9999.000
 80340, -9999.000
 80400, -9999.000
 80460, -9999.000
 80520, -9999.000
 80580, -9999.000
 80640, -9999.000
 80700, -9999.000
 80760, -9999.000
 80820, -9999.000
 80880, -9999.000
 80940, -9999.000
 81000, -9999.000
 81060, -9999.000
 81120, -9999.000
 81180, -9999.000
 81240, -9999.000
 81300, -9999.000
 81360, -9999.000
 81420, -9999.000
 81480, -9999.000
 81540, -9999.000
 81600, -9999.000
 81660, -9999.000
 81720, -9999.000
 81780, -9999.000
 81840, -9999.000
 81900, -9999.000
 81960, -9999.000
 82020, -9999.000
 82080, -9999.000
 82140, -9999.000
 82200, -9999.000
 82260, -9999.000
 82320, -9999.000
 82380, -9999.000
 82440, -9999.000
 82500, -9999.000
 82560, -9999.000
 82620, -9999.000
 82680, -9999.000
 82740, -9999.000
 82800, -9999.000
 82860, -9999.000
 82920, -9999.000
 82980, -9999.000
 83040, -9999.000
 83100, -9999.000
 83160, -9999.000
 83220, -9999.000
 83280, -9999.000
 83340, -9999.000
 83400, -9999.000
 83460, -9999.000
 83520, -9999.000
 83580, -9999.000
 83640, -9999.000
 83700, -9999.000
 83760, -9999.000
 83820, -9999.000
 83880, -9999.000
 83940, -9999.000
 84000, -9999.000
 84060, -9999.000
 84120, -9999.000
 84180, -9999.000
 84240, -9999.000
 84300, -9999.000
 84360, -9999.000
 84420, -9999.000
 84480, -9999.000
 84540, -9999.000
 84600, -9999.000
 84660, -9999.000
 84720, -9999.000
 84780, -9999.000
 84840, -9999.000
 84900, -9999.000
 84960, -9999.000
 85020, -9999.000
 85080, -9999.000
 85140, -9999.000
 85200, -9999.000
 85260, -9999.000
 85320, -9999.000
 85380, -9999.000
 85440, -9999.000
 85500, -9999.000
 85560, -9999.000
 85620, -9999.000
 85680, -9999.000
 85740, -9999.000
 85800, -9999.000
 85860, -9999.000
 85920, -9999.000
 85980, -9999.000
 86040, -9999.000
 86100, -9999.000
 86160, -9999.000
 86220, -9999.000
 86280, -9999.000
 86340, -9999.000
