37, 1001
Michael A Robinson, Chris Jernigan, Subi Thakali
NOAA ESRL Chemical Sciences Laboratory and CIRES, U. of Colorado
NOAA Iodide CIMS Instrument
USOS
1, 1
2024, 08, 14, 2024, 08, 15
1
starttime_UTC, seconds_past_midnight, seconds_of_day_since_00:00:00_UTC
5
1, 1, 1, 1, 1
-9999, -9999, -9999, -9999, -9999
C4H7NO5_NOAACIMS, pptv, Gas_C4H7NO5_InSitu_S_AVMR, 
ISOPN_NOAACIMS, pptv, Gas_ISOPN_InSitu_S_AVMR, 
C5H10O3_NOAACIMS, pptv, Gas_C5H10O3_InSitu_S_AVMR, 
C5H9NO5_NOAACIMS, pptv, Gas_C5H9NO5_InSitu_S_AVMR, 
C10H17NO4_NOAACIMS, pptv, Gas_C10H17NO4_InSitu_S_AVMR, 
0
18
PI_CONTACT_INFO: 325 Broadway, R/CSD 7, Boulder, Colorado 80305; michael.a.robinson@noaa.gov; chris.jernigan@noaa.gov;
PLATFORM: NOAA CSL Mobile Lab
LOCATION: SLC, Utah
ASSOCIATED_DATA: 1Hz data also available on request.
INSTRUMENT_INFO: NOAA I- ToF CIMS
DATA_INFO: All data in parts per trillion by volume (pptv). 1 Hz data is available upon request.
UNCERTAINTY: TBD
ULOD_FLAG: -7777
ULOD_VALUE: N/A
LLOD_FLAG: -8888
LLOD_VALUE: N/A
DM_CONTACT_INFO: Nathan Howard; nathan.h.howard@noaa.gov
PROJECT_INFO: USOS, summer 2024. https://csl.noaa.gov/groups/csl7/measurements/2024usos/
STIPULATIONS_ON_USE: Users are strongly encouraged to contact the PI for proper data usage.
OTHER_COMMENTS: 
REVISION: RA
RA: Preliminary Data; For in-field use only
starttime_UTC, C4H7NO5_NOAACIMS, ISOPN_NOAACIMS, C5H10O3_NOAACIMS, C5H9NO5_NOAACIMS, C10H17NO4_NOAACIMS
     0,  1.057,  1.404,  7.819,  1.369,  0.238
    60,  1.069,  1.561,  6.761,  1.424,  0.273
   120,  1.028,  1.632,  6.451,  1.313,  0.222
   180,  0.967,  1.394,  6.329,  1.271,  0.296
   240,  0.914,  1.360,  6.186,  1.256,  0.288
   300,  0.819,  1.457,  5.142,  1.146,  0.249
   360,  0.727,  1.443,  5.008,  1.015,  0.277
   420,  0.657,  1.208,  4.116,  0.920,  0.307
   480,  0.572,  0.978,  4.146,  0.834,  0.254
   540,  0.593,  1.127,  4.279,  0.766,  0.295
   600,  0.664,  1.149,  4.609,  0.944,  0.218
   660,  0.667,  1.111,  3.929,  0.901,  0.249
   720,  0.636,  1.148,  3.954,  0.863,  0.229
   780,  0.605,  1.133,  3.447,  0.839,  0.225
   840,  0.562,  1.072,  3.359,  0.793,  0.247
   900,  0.600,  1.213,  3.211,  0.738,  0.253
   960,  0.567,  1.034,  3.571,  0.835,  0.274
  1020,  0.577,  0.878,  3.533,  0.759,  0.231
  1080,  0.567,  1.081,  3.309,  0.695,  0.242
  1140,  0.559,  0.935,  3.339,  0.672,  0.219
  1200,  0.507,  0.990,  3.907,  0.674,  0.268
  1260,  0.511,  1.030,  3.451,  0.727,  0.293
  1320,  0.488,  0.915,  2.938,  0.662,  0.241
  1380,  0.542,  0.998,  2.959,  0.767,  0.270
  1440,  0.602,  0.835,  3.287,  0.386,  0.168
  1500,  0.488,  1.032,  3.059,  0.713,  0.261
  1560,  0.487,  0.870,  2.576,  0.666,  0.281
  1620,  0.498,  0.891,  2.576,  0.674,  0.275
  1680,  0.509,  0.839,  3.051,  0.645,  0.303
  1740,  0.543,  0.887,  3.141,  0.670,  0.271
  1800,  0.572,  0.951,  2.462,  0.697,  0.260
  1860,  0.570,  0.903,  3.210,  0.752,  0.220
  1920,  0.591,  0.792,  3.279,  0.715,  0.213
  1980,  0.592,  0.786,  3.129,  0.794,  0.244
  2040,  0.580,  0.808,  2.754,  0.741,  0.213
  2100,  0.605,  0.812,  2.991,  0.781,  0.232
  2160,  0.634,  0.923,  3.327,  0.781,  0.286
  2220,  0.664,  0.885,  3.000,  0.827,  0.240
  2280,  0.667,  1.021,  3.239,  0.885,  0.260
  2340,  0.727,  1.134,  3.319,  0.901,  0.241
  2400,  0.716,  0.879,  3.299,  0.993,  0.224
  2460,  0.770,  0.891,  3.382,  0.988,  0.255
  2520,  0.784,  0.965,  3.704,  1.022,  0.190
  2580,  0.802,  0.921,  3.545,  0.973,  0.199
  2640,  0.815,  0.928,  3.544,  0.962,  0.228
  2700,  0.865,  1.027,  3.761,  1.031,  0.235
  2760,  0.895,  0.940,  3.771,  1.127,  0.270
  2820,  0.877,  0.998,  3.461,  1.060,  0.283
  2880,  0.871,  0.843,  3.893,  1.154,  0.270
  2940,  0.904,  1.035,  4.331,  1.130,  0.247
  3000,  0.893,  0.914,  4.012,  1.070,  0.231
  3060,  0.899,  0.764,  4.156,  1.057,  0.253
  3120,  0.878,  0.828,  4.152,  1.064,  0.202
  3180,  0.914,  0.914,  4.476,  1.053,  0.230
  3240,  0.946,  0.921,  4.570,  1.069,  0.175
  3300,  0.953,  0.861,  4.558,  0.957,  0.147
  3360,  0.928,  0.686,  5.213,  1.207,  0.243
  3420,  0.926,  0.927,  5.151,  1.117,  0.211
  3480,  0.906,  0.731,  5.163,  1.089,  0.218
  3540,  0.861,  0.814,  4.577,  1.069,  0.211
  3600,  0.808,  0.843,  4.940,  1.099,  0.240
  3660,  0.724,  0.720,  4.274,  1.045,  0.161
  3720,  0.697,  0.771,  3.992,  0.954,  0.225
  3780,  0.649,  0.610,  3.842,  0.896,  0.180
  3840,  0.623,  0.485,  3.079,  0.883,  0.179
  3900,  0.594,  0.614,  3.262,  0.890,  0.159
  3960,  0.615,  0.717,  3.778,  0.877,  0.149
  4020,  0.629,  0.585,  3.435,  0.833,  0.150
  4080,  0.591,  0.700,  3.084,  0.820,  0.153
  4140,  0.576,  0.631,  3.238,  0.849,  0.151
  4200,  0.548,  0.409,  3.455,  0.809,  0.157
  4260,  0.538,  0.655,  2.901,  0.770,  0.110
  4320,  0.553,  0.511,  3.447,  0.764,  0.162
  4380,  0.547,  0.676,  3.315,  0.782,  0.162
  4440,  0.562,  0.467,  2.676,  0.781,  0.137
  4500,  0.605,  0.759,  3.253,  0.802,  0.104
  4560,  0.584,  0.659,  3.425,  0.848,  0.166
  4620,  0.624,  0.631,  3.309,  0.854,  0.147
  4680,  0.599,  0.704,  3.395,  0.844,  0.166
  4740,  0.639,  0.655,  3.348,  0.879,  0.171
  4800,  0.677,  0.696,  3.682,  0.939,  0.196
  4860,  0.639,  0.758,  3.729,  0.912,  0.116
  4920,  0.624,  0.609,  3.297,  0.887,  0.149
  4980,  0.626,  0.656,  3.578,  0.865,  0.119
  5040,  0.592,  0.641,  3.462,  0.827,  0.143
  5100, -9999.000, -9999.000, -9999.000, -9999.000, -9999.000
  5160,  0.562,  0.786,  3.377,  0.711,  0.153
  5220,  0.581,  0.669,  3.032,  0.796,  0.142
  5280,  0.569,  0.646,  2.595,  0.817,  0.180
  5340,  0.598,  0.698,  2.905,  0.809,  0.166
  5400,  0.561,  0.545,  3.047,  0.836,  0.140
  5460,  0.575,  0.601,  2.958,  0.854,  0.130
  5520,  0.614,  0.694,  3.017,  0.888,  0.159
  5580,  0.595,  0.646,  3.036,  0.958,  0.152
  5640,  0.628,  0.514,  2.805,  0.836,  0.150
  5700,  0.660,  0.627,  2.842,  1.005,  0.189
  5760,  0.674,  0.578,  3.273,  1.032,  0.152
  5820,  0.701,  0.628,  3.407,  1.045,  0.176
  5880,  0.768,  0.605,  3.123,  1.103,  0.157
  5940,  0.793,  0.662,  3.085,  1.113,  0.187
  6000,  0.769,  0.630,  3.230,  1.217,  0.233
  6060,  0.798,  0.595,  3.467,  1.102,  0.213
  6120,  0.822,  0.713,  3.480,  1.195,  0.200
  6180,  0.804,  0.599,  3.423,  1.188,  0.238
  6240,  0.829,  0.532,  3.553,  1.264,  0.221
  6300,  0.828,  0.693,  3.232,  1.220,  0.195
  6360,  0.866,  0.516,  3.814,  1.344,  0.247
  6420,  0.926,  0.491,  3.811,  1.278,  0.224
  6480,  0.932,  0.609,  3.561,  1.408,  0.272
  6540,  0.953,  0.625,  3.818,  1.500,  0.252
  6600,  0.995,  0.697,  3.818,  1.424,  0.239
  6660,  1.173,  0.752,  4.347,  1.597,  0.308
  6720,  1.292,  0.614,  4.738,  1.557,  0.276
  6780,  1.178,  0.640,  4.331,  1.615,  0.269
  6840,  1.072,  0.771,  4.108,  1.473,  0.306
  6900,  1.071,  0.397,  4.773,  1.484,  0.329
  6960, -9999.000, -9999.000, -9999.000, -9999.000, -9999.000
  7020,  1.053,  0.563,  4.677,  1.576,  0.288
  7080,  1.065,  0.560,  4.553,  1.635,  0.294
  7140,  1.091,  0.547,  4.995,  1.581,  0.292
  7200,  1.090,  0.620,  5.472,  1.648,  0.362
  7260,  1.097,  0.659,  5.598,  1.640,  0.364
  7320,  1.120,  0.745,  5.016,  1.627,  0.412
  7380,  1.152,  0.715,  5.680,  1.684,  0.355
  7440,  1.147,  0.730,  5.722,  1.790,  0.335
  7500,  1.183,  0.593,  5.897,  1.741,  0.400
  7560,  1.149,  0.798,  5.514,  1.689,  0.406
  7620,  1.079,  0.750,  6.055,  1.539,  0.417
  7680,  1.051,  0.740,  6.286,  1.546,  0.404
  7740,  1.051,  0.666,  6.196,  1.698,  0.368
  7800,  1.137,  0.902,  5.985,  1.658,  0.412
  7860,  1.120,  0.810,  6.805,  1.671,  0.421
  7920,  1.164,  0.853,  7.083,  1.738,  0.474
  7980,  1.177,  0.847,  6.841,  1.850,  0.508
  8040,  1.205,  0.726,  7.339,  1.775,  0.491
  8100,  1.173,  0.810,  7.301,  1.762,  0.435
  8160,  1.076,  0.732,  6.926,  1.533,  0.422
  8220,  1.082,  0.847,  6.563,  1.623,  0.385
  8280,  1.073,  0.703,  7.118,  1.646,  0.438
  8340,  1.131,  0.873,  7.402,  1.656,  0.443
  8400,  1.072,  0.940,  7.537,  1.569,  0.417
  8460,  1.073,  0.837,  7.941,  1.791,  0.446
  8520,  1.051,  0.817,  7.476,  1.612,  0.489
  8580,  0.947,  0.671,  7.163,  1.395,  0.376
  8640,  0.916,  0.834,  7.001,  1.384,  0.443
  8700,  0.882,  0.741,  7.134,  1.328,  0.448
  8760,  0.884,  0.714,  7.115,  1.485,  0.357
  8820, -9999.000, -9999.000, -9999.000, -9999.000, -9999.000
  8880,  0.900,  0.566,  7.349,  1.322,  0.383
  8940,  0.945,  0.716,  7.603,  1.355,  0.433
  9000,  0.908,  0.650,  6.887,  1.276,  0.365
  9060,  0.901,  0.761,  7.298,  1.313,  0.374
  9120,  0.979,  0.680,  8.255,  1.429,  0.402
  9180,  0.909,  0.661,  7.684,  1.407,  0.415
  9240,  0.920,  0.721,  7.950,  1.335,  0.404
  9300,  0.998,  0.809,  8.211,  1.494,  0.417
  9360,  0.875,  0.666,  7.580,  1.327,  0.383
  9420,  0.864,  0.682,  7.912,  1.298,  0.458
  9480,  0.868,  0.772,  8.037,  1.349,  0.478
  9540,  0.899,  0.715,  7.799,  1.289,  0.485
  9600,  0.904,  0.639,  7.973,  1.308,  0.447
  9660,  0.877,  0.574,  7.581,  1.342,  0.444
  9720,  0.853,  0.548,  8.211,  1.295,  0.459
  9780,  0.847,  0.759,  7.682,  1.263,  0.438
  9840,  0.827,  0.671,  7.338,  1.275,  0.447
  9900,  0.834,  0.547,  7.016,  1.207,  0.430
  9960,  0.792,  0.524,  7.367,  1.274,  0.428
 10020,  0.807,  0.506,  7.360,  1.256,  0.380
 10080,  0.829,  0.562,  6.479,  1.239,  0.405
 10140,  0.808,  0.574,  7.179,  1.250,  0.472
 10200,  0.827,  0.570,  7.283,  1.206,  0.424
 10260,  0.808,  0.552,  7.083,  1.147,  0.421
 10320,  0.789,  0.518,  7.117,  1.195,  0.416
 10380,  0.853,  0.533,  7.094,  1.243,  0.371
 10440,  0.792,  0.590,  7.184,  1.225,  0.404
 10500,  0.776,  0.532,  6.903,  1.224,  0.457
 10560,  0.784,  0.599,  6.909,  1.198,  0.414
 10620,  0.875,  0.399,  6.995,  1.181,  0.443
 10680,  0.749,  0.298,  6.516,  1.187,  0.361
 10740,  0.776,  0.563,  6.756,  1.143,  0.447
 10800,  0.774,  0.493,  6.888,  1.149,  0.397
 10860,  0.732,  0.371,  6.904,  1.192,  0.462
 10920,  0.767,  0.470,  5.952,  1.237,  0.415
 10980,  0.773,  0.522,  6.797,  1.149,  0.465
 11040,  0.786,  0.544,  7.143,  1.183,  0.408
 11100,  0.754,  0.481,  6.487,  1.125,  0.429
 11160,  0.762,  0.375,  6.603,  1.145,  0.434
 11220,  0.802,  0.310,  7.300,  1.097,  0.434
 11280,  0.781,  0.393,  6.951,  1.153,  0.437
 11340,  0.768,  0.313,  6.940,  1.073,  0.435
 11400,  0.754,  0.626,  6.773,  1.186,  0.438
 11460,  0.780,  0.423,  6.964,  1.142,  0.400
 11520,  0.792,  0.425,  7.407,  1.161,  0.413
 11580,  0.771,  0.457,  6.772,  1.028,  0.355
 11640,  0.778,  0.411,  6.606,  1.067,  0.437
 11700,  0.744,  0.355,  6.711,  1.032,  0.403
 11760,  0.777,  0.474,  6.783,  1.189,  0.442
 11820,  0.748,  0.339,  6.929,  1.155,  0.401
 11880,  0.699,  0.339,  6.587,  1.057,  0.420
 11940,  0.763,  0.535,  6.598,  1.182,  0.440
 12000,  0.736,  0.478,  6.783,  1.011,  0.443
 12060,  0.758,  0.435,  6.654,  1.132,  0.422
 12120,  0.757,  0.354,  6.884,  1.154,  0.446
 12180,  0.744,  0.447,  6.829,  1.063,  0.418
 12240,  0.752,  0.418,  6.335,  0.956,  0.463
 12300,  0.793,  0.450,  6.108,  1.025,  0.514
 12360,  0.792,  0.462,  6.883,  1.127,  0.474
 12420,  0.796,  0.510,  6.844,  1.248,  0.579
 12480, -9999.000, -9999.000, -9999.000, -9999.000, -9999.000
 12540,  0.791,  0.389,  5.990,  0.961,  0.425
 12600,  0.733,  0.576,  6.184,  1.059,  0.535
 12660,  0.752,  0.472,  5.909,  1.073,  0.524
 12720,  0.858,  0.662,  6.432,  1.256,  0.686
 12780,  0.886,  0.526,  7.077,  1.317,  0.726
 12840,  0.929,  0.690,  7.898,  1.470,  0.925
 12900,  0.910,  0.715,  8.221,  1.542,  0.935
 12960,  0.947,  0.664,  7.917,  1.511,  0.961
 13020,  0.917,  0.726,  7.767,  1.450,  1.029
 13080,  0.906,  0.679,  8.575,  1.549,  1.061
 13140,  0.882,  0.588,  8.737,  1.429,  1.042
 13200,  0.899,  0.465,  8.216,  1.409,  0.980
 13260,  0.882,  0.640,  7.842,  1.405,  1.136
 13320,  0.864,  0.729,  8.490,  1.454,  1.085
 13380,  0.864,  0.570,  8.630,  1.374,  1.008
 13440,  0.833,  0.693,  8.052,  1.445,  0.972
 13500,  0.772,  0.618,  7.317,  1.286,  0.761
 13560,  0.798,  0.621,  7.176,  1.283,  0.767
 13620,  0.834,  0.598,  7.467,  1.297,  0.756
 13680,  0.837,  0.597,  7.538,  1.396,  0.887
 13740,  0.868,  0.709,  8.058,  1.365,  1.116
 13800,  0.817,  0.609,  7.047,  1.309,  0.858
 13860,  0.825,  0.691,  7.335,  1.376,  0.975
 13920,  0.813,  0.728,  7.154,  1.318,  0.861
 13980,  0.782,  0.690,  6.865,  1.267,  0.849
 14040,  0.819,  0.676,  6.601,  1.303,  0.826
 14100,  0.804,  0.594,  6.641,  1.265,  0.796
 14160,  0.798,  0.710,  7.241,  1.281,  0.823
 14220,  0.834,  0.917,  6.545,  1.351,  0.835
 14280,  0.817,  0.709,  6.153,  1.251,  0.746
 14340, -9999.000, -9999.000, -9999.000, -9999.000, -9999.000
 14400,  0.751,  0.652,  5.919,  1.266,  0.571
 14460,  0.745,  0.655,  6.168,  1.171,  0.610
 14520,  0.810,  0.652,  5.947,  1.212,  0.578
 14580,  0.772,  0.622,  6.019,  1.216,  0.607
 14640,  0.840,  0.800,  6.610,  1.228,  0.605
 14700,  0.766,  0.783,  6.786,  1.233,  0.612
 14760,  0.815,  0.875,  5.977,  1.273,  0.686
 14820,  0.812,  0.857,  5.880,  1.144,  0.701
 14880,  0.784,  0.726,  5.743,  1.200,  0.707
 14940,  0.775,  0.846,  5.984,  1.151,  0.747
 15000,  0.797,  0.765,  5.620,  1.147,  0.678
 15060,  0.804,  0.816,  6.044,  1.216,  0.661
 15120,  0.820,  0.789,  5.649,  1.203,  0.563
 15180,  0.808,  0.906,  6.030,  1.170,  0.624
 15240,  0.766,  0.952,  5.879,  1.180,  0.660
 15300,  0.762,  0.730,  5.650,  1.192,  0.639
 15360,  0.772,  0.812,  6.312,  1.194,  0.665
 15420,  0.761,  0.719,  6.502,  1.128,  0.536
 15480,  0.764,  0.832,  5.715,  1.115,  0.565
 15540,  0.741,  0.908,  5.938,  1.089,  0.660
 15600,  0.763,  1.005,  6.767,  1.131,  0.697
 15660,  0.766,  0.969,  6.577,  1.088,  0.708
 15720,  0.746,  0.791,  6.026,  1.118,  0.693
 15780,  0.774,  0.821,  5.996,  1.188,  0.715
 15840,  0.758,  1.021,  6.408,  1.169,  0.722
 15900,  0.746,  0.941,  6.406,  1.163,  0.786
 15960,  0.793,  0.927,  5.816,  1.142,  0.777
 16020,  0.764,  0.962,  6.329,  1.105,  0.725
 16080,  0.790,  0.955,  6.309,  1.140,  0.768
 16140,  0.765,  0.904,  5.739,  1.124,  0.845
 16200, -9999.000, -9999.000, -9999.000, -9999.000, -9999.000
 16260,  0.717,  0.833,  5.438,  1.081,  0.815
 16320,  0.752,  0.981,  5.714,  1.094,  0.806
 16380,  0.720,  0.963,  5.635,  1.105,  0.802
 16440,  0.754,  0.878,  5.613,  1.141,  0.780
 16500,  0.764,  0.969,  5.903,  1.143,  0.760
 16560,  0.755,  0.963,  5.670,  1.104,  0.886
 16620,  0.780,  0.980,  6.070,  1.165,  0.810
 16680,  0.756,  1.036,  5.852,  1.140,  0.832
 16740,  0.766,  1.060,  5.598,  1.133,  0.843
 16800,  0.761,  1.052,  5.973,  1.087,  0.830
 16860,  0.770,  1.031,  5.860,  1.231,  0.784
 16920,  0.743,  1.058,  6.280,  1.108,  0.862
 16980,  0.781,  1.136,  5.796,  1.135,  0.883
 17040,  0.803,  1.017,  5.896,  1.184,  0.880
 17100,  0.797,  1.008,  5.751,  1.201,  0.877
 17160,  0.751,  0.892,  6.235,  1.200,  0.883
 17220,  0.735,  1.078,  6.064,  1.232,  0.874
 17280,  0.767,  1.045,  5.577,  1.140,  0.889
 17340,  0.763,  0.946,  6.164,  1.329,  0.831
 17400,  0.802,  1.052,  6.130,  1.240,  0.840
 17460,  0.765,  0.890,  5.916,  1.237,  0.883
 17520,  0.772,  1.073,  5.592,  1.297,  0.836
 17580,  0.752,  0.931,  5.992,  1.350,  0.824
 17640,  0.761,  0.985,  6.012,  1.354,  0.827
 17700,  0.779,  1.037,  6.630,  1.313,  0.795
 17760,  0.748,  0.950,  5.923,  1.356,  0.870
 17820,  0.793,  0.971,  6.235,  1.361,  0.836
 17880,  0.773,  1.016,  6.300,  1.297,  0.880
 17940,  0.782,  0.975,  5.954,  1.345,  0.760
 18000,  0.771,  0.905,  5.680,  1.423,  0.804
 18060,  0.755,  0.783,  6.024,  1.455,  0.720
 18120,  0.750,  1.016,  6.047,  1.319,  0.763
 18180,  0.762,  0.966,  5.754,  1.370,  0.747
 18240,  0.800,  0.984,  6.143,  1.540,  0.746
 18300,  0.791,  0.949,  5.944,  1.400,  0.814
 18360,  0.770,  1.089,  6.379,  1.466,  0.755
 18420,  0.797,  0.967,  6.243,  1.517,  0.754
 18480,  0.789,  1.036,  5.735,  1.439,  0.726
 18540,  0.791,  0.835,  5.743,  1.469,  0.751
 18600,  0.757,  1.074,  5.963,  1.504,  0.657
 18660,  0.798,  1.025,  6.040,  1.455,  0.616
 18720,  0.804,  0.983,  6.445,  1.501,  0.641
 18780,  0.776,  0.983,  6.096,  1.541,  0.697
 18840,  0.802,  1.027,  6.116,  1.528,  0.679
 18900,  0.786,  1.086,  5.986,  1.520,  0.634
 18960,  0.779,  0.897,  6.149,  1.634,  0.667
 19020,  0.818,  1.015,  6.537,  1.588,  0.672
 19080,  0.782,  1.012,  5.868,  1.528,  0.636
 19140,  0.780,  0.947,  5.846,  1.600,  0.715
 19200,  0.781,  0.955,  6.655,  1.552,  0.682
 19260,  0.784,  1.113,  6.711,  1.666,  0.699
 19320,  0.806,  0.941,  5.907,  1.689,  0.684
 19380,  0.789,  1.009,  6.271,  1.723,  0.635
 19440,  0.763,  1.024,  6.649,  1.479,  0.664
 19500,  0.786,  0.790,  6.317,  1.624,  0.705
 19560,  0.772,  0.767,  6.242,  1.658,  0.648
 19620,  0.784,  0.986,  6.678,  1.583,  0.566
 19680,  0.774,  0.866,  6.414,  1.608,  0.716
 19740,  0.768,  1.049,  6.861,  1.668,  0.683
 19800,  0.816,  0.945,  6.360,  1.596,  0.721
 19860,  0.760,  0.855,  6.294,  1.686,  0.635
 19920,  0.784,  0.805,  5.772,  1.580,  0.625
 19980,  0.745,  0.854,  6.128,  1.613,  0.742
 20040,  0.734,  0.845,  5.811,  1.649,  0.768
 20100,  0.770,  0.981,  6.060,  1.532,  0.737
 20160,  0.781,  0.961,  6.521,  1.750,  0.690
 20220,  0.778,  0.908,  6.333,  1.711,  0.754
 20280,  0.726,  0.828,  6.364,  1.688,  0.751
 20340,  0.783,  0.963,  5.997,  1.611,  0.727
 20400,  0.774,  0.923,  6.410,  1.612,  0.714
 20460,  0.792,  1.017,  6.331,  1.522,  0.748
 20520,  0.780,  0.862,  5.818,  1.620,  0.782
 20580,  0.803,  0.933,  6.169,  1.626,  0.778
 20640,  0.775,  0.892,  5.783,  1.573,  0.724
 20700,  0.772,  0.903,  6.069,  1.544,  0.746
 20760,  0.769,  0.995,  6.573,  1.628,  0.702
 20820,  0.795,  0.913,  6.503,  1.535,  0.797
 20880,  0.801,  0.919,  5.763,  1.512,  0.860
 20940,  0.796,  0.802,  6.009,  1.613,  0.839
 21000,  0.807,  1.053,  5.677,  1.579,  0.836
 21060,  0.803,  0.979,  5.894,  1.518,  0.778
 21120,  0.779,  0.919,  5.673,  1.549,  0.739
 21180,  0.834,  0.898,  5.623,  1.583,  0.817
 21240,  0.794,  0.978,  6.125,  1.460,  0.910
 21300,  0.799,  1.112,  6.160,  1.626,  0.830
 21360,  0.768,  0.913,  5.728,  1.610,  0.810
 21420,  0.784,  1.076,  5.429,  1.580,  0.845
 21480,  0.777,  0.943,  5.563,  1.631,  0.809
 21540,  0.794,  1.029,  6.074,  1.642,  0.905
 21600,  0.750,  0.975,  5.168,  1.565,  0.882
 21660,  0.791,  0.982,  5.523,  1.507,  0.866
 21720,  0.784,  1.031,  5.243,  1.456,  0.794
 21780,  0.748,  1.029,  5.394,  1.577,  0.709
 21840,  0.758,  1.024,  4.816,  1.579,  0.813
 21900,  0.746,  1.006,  5.153,  1.533,  0.814
 21960,  0.732,  1.115,  5.741,  1.600,  0.871
 22020,  0.768,  1.063,  5.265,  1.587,  0.901
 22080,  0.724,  0.971,  5.118,  1.493,  0.816
 22140,  0.738,  0.956,  4.727,  1.660,  0.713
 22200,  0.739,  0.956,  5.849,  1.605,  0.869
 22260,  0.741,  0.934,  5.372,  1.575,  0.872
 22320,  0.748,  0.926,  5.498,  1.667,  0.818
 22380,  0.773,  0.927,  4.986,  1.671,  0.829
 22440,  0.762,  0.904,  5.836,  1.620,  0.825
 22500,  0.753,  0.809,  5.463,  1.628,  0.828
 22560,  0.766,  0.922,  5.379,  1.606,  0.800
 22620,  0.748,  0.944,  5.405,  1.638,  0.848
 22680,  0.789,  0.845,  5.221,  1.605,  0.864
 22740,  0.773,  0.878,  5.599,  1.705,  0.799
 22800,  0.808,  1.146,  5.266,  1.742,  0.834
 22860,  0.782,  0.838,  5.454,  1.643,  0.828
 22920,  0.794,  0.870,  5.281,  1.684,  0.830
 22980,  0.790,  0.867,  5.373,  1.851,  0.836
 23040,  0.795,  0.905,  5.578,  1.654,  0.833
 23100,  0.792,  0.915,  5.420,  1.764,  0.842
 23160,  0.793,  0.840,  5.193,  1.699,  0.850
 23220,  0.780,  0.719,  5.445,  1.724,  0.831
 23280,  0.760,  0.960,  5.737,  1.752,  0.854
 23340,  0.807,  0.752,  5.535,  1.869,  0.901
 23400,  0.784,  0.775,  4.867,  1.774,  0.870
 23460,  0.777,  0.739,  5.309,  1.781,  0.893
 23520,  0.811,  0.777,  5.756,  1.746,  0.969
 23580, -9999.000, -9999.000, -9999.000, -9999.000, -9999.000
 23640,  0.760,  0.649,  4.230,  1.670,  0.861
 23700,  0.767,  0.750,  4.994,  1.741,  0.863
 23760,  0.797,  0.935,  5.463,  1.781,  0.916
 23820,  0.801,  0.874,  5.433,  1.829,  0.954
 23880,  0.819,  0.873,  5.265,  1.715,  0.939
 23940,  0.768,  0.831,  5.598,  1.685,  0.911
 24000,  0.774,  0.968,  5.559,  1.715,  0.930
 24060,  0.814,  0.868,  6.016,  1.721,  0.920
 24120,  0.788,  0.940,  5.859,  1.776,  0.897
 24180,  0.762,  0.670,  5.741,  1.783,  0.974
 24240,  0.780,  0.793,  5.775,  1.713,  0.925
 24300,  0.793,  0.826,  6.206,  1.701,  1.019
 24360,  0.802,  0.917,  5.645,  1.753,  0.928
 24420,  0.810,  0.997,  5.918,  1.736,  0.861
 24480,  0.791,  0.985,  5.927,  1.701,  0.970
 24540,  0.756,  0.902,  6.131,  1.756,  1.002
 24600,  0.794,  0.891,  5.791,  1.739,  0.947
 24660,  0.777,  0.819,  6.069,  1.682,  1.014
 24720,  0.722,  1.028,  5.904,  1.676,  1.086
 24780,  0.779,  0.906,  5.993,  1.762,  0.998
 24840,  0.762,  0.994,  6.045,  1.660,  0.978
 24900,  0.784,  0.855,  6.137,  1.793,  1.005
 24960,  0.798,  1.048,  6.056,  1.730,  0.954
 25020,  0.812,  1.084,  6.055,  1.645,  1.015
 25080,  0.785,  0.944,  5.927,  1.687,  0.952
 25140,  0.803,  0.909,  5.994,  1.612,  0.938
 25200,  0.813,  0.902,  5.980,  1.689,  0.954
 25260,  0.807,  0.977,  6.446,  1.694,  1.039
 25320,  0.811,  1.070,  6.175,  1.616,  0.933
 25380,  0.805,  0.951,  6.224,  1.661,  0.991
 25440, -9999.000, -9999.000, -9999.000, -9999.000, -9999.000
 25500,  0.778,  0.904,  5.916,  1.565,  0.975
 25560,  0.783,  0.939,  6.288,  1.619,  1.079
 25620,  0.826,  1.072,  6.051,  1.772,  1.037
 25680,  0.802,  0.857,  5.565,  1.591,  1.045
 25740,  0.786,  0.871,  5.718,  1.650,  1.028
 25800,  0.774,  0.995,  6.150,  1.738,  1.041
 25860,  0.803,  0.959,  5.663,  1.681,  1.096
 25920,  0.767,  0.982,  5.922,  1.598,  1.061
 25980,  0.793,  0.910,  5.544,  1.709,  0.976
 26040,  0.770,  0.935,  6.473,  1.757,  1.033
 26100,  0.750,  0.894,  5.693,  1.613,  1.085
 26160,  0.761,  0.987,  5.406,  1.627,  1.065
 26220,  0.771,  1.002,  5.855,  1.693,  1.143
 26280,  0.780,  0.897,  5.948,  1.707,  1.175
 26340,  0.789,  1.025,  6.049,  1.666,  1.072
 26400,  0.793,  0.859,  5.628,  1.603,  1.060
 26460,  0.752,  0.837,  5.651,  1.707,  1.052
 26520,  0.790,  0.918,  5.989,  1.672,  1.152
 26580,  0.794,  0.999,  5.913,  1.611,  1.056
 26640,  0.793,  0.971,  5.953,  1.818,  1.032
 26700,  0.796,  1.035,  5.653,  1.848,  1.079
 26760,  0.794,  0.983,  5.561,  1.821,  1.092
 26820,  0.825,  1.152,  5.644,  1.855,  1.137
 26880,  0.787,  0.999,  5.441,  1.847,  1.074
 26940,  0.776,  1.120,  5.244,  1.808,  1.248
 27000,  0.792,  1.182,  5.267,  1.858,  1.096
 27060,  0.786,  0.943,  5.545,  1.801,  1.073
 27120,  0.798,  1.089,  5.694,  1.847,  1.173
 27180,  0.851,  1.017,  5.157,  1.860,  1.072
 27240,  0.803,  1.106,  5.424,  1.969,  1.134
 27300, -9999.000, -9999.000, -9999.000, -9999.000, -9999.000
 27360,  0.770,  0.987,  4.963,  1.779,  0.947
 27420,  0.804,  1.231,  5.399,  1.834,  1.085
 27480,  0.803,  1.066,  5.091,  1.865,  1.030
 27540,  0.770,  1.110,  5.176,  1.845,  1.119
 27600,  0.793,  1.085,  5.493,  1.903,  1.078
 27660,  0.780,  1.019,  5.432,  1.846,  1.084
 27720,  0.803,  1.205,  5.184,  1.817,  1.093
 27780,  0.799,  1.112,  5.469,  1.875,  1.121
 27840,  0.783,  1.206,  5.383,  1.886,  1.165
 27900,  0.802,  1.143,  5.700,  1.899,  1.106
 27960,  0.795,  1.028,  5.244,  1.892,  1.026
 28020,  0.786,  1.046,  5.420,  1.923,  1.096
 28080,  0.792,  1.170,  5.742,  1.915,  1.081
 28140,  0.794,  1.193,  5.529,  1.791,  1.094
 28200,  0.759,  0.970,  5.603,  1.933,  1.050
 28260,  0.772,  0.953,  5.525,  1.929,  1.025
 28320,  0.763,  1.029,  5.538,  1.938,  1.100
 28380,  0.799,  1.018,  5.525,  1.918,  1.148
 28440,  0.787,  0.982,  5.727,  1.849,  1.089
 28500,  0.807,  1.036,  5.781,  1.833,  1.113
 28560,  0.766,  1.062,  5.884,  1.885,  1.011
 28620,  0.767,  1.004,  5.595,  1.858,  0.988
 28680,  0.758,  1.159,  5.500,  1.917,  1.108
 28740,  0.741,  0.974,  5.805,  1.931,  1.114
 28800,  0.778,  1.061,  5.458,  1.947,  0.996
 28860,  0.770,  1.140,  5.788,  1.830,  1.102
 28920,  0.797,  1.068,  5.564,  1.850,  1.081
 28980,  0.752,  1.107,  5.600,  1.972,  1.058
 29040,  0.786,  1.128,  5.771,  1.913,  1.117
 29100,  0.792,  0.816,  5.391,  1.815,  0.977
 29160,  0.739,  0.679,  4.988,  1.753,  0.882
 29220,  0.796,  0.976,  5.467,  1.939,  1.021
 29280,  0.761,  1.125,  5.322,  1.909,  1.106
 29340,  0.772,  1.047,  5.856,  1.974,  1.071
 29400,  0.803,  1.160,  5.485,  1.955,  1.091
 29460,  0.807,  1.216,  6.001,  1.980,  1.136
 29520,  0.787,  1.049,  5.704,  2.012,  1.021
 29580,  0.789,  1.127,  5.576,  1.861,  1.032
 29640,  0.780,  1.265,  5.794,  1.888,  1.097
 29700,  0.781,  1.149,  5.490,  1.908,  1.132
 29760,  0.831,  1.012,  5.911,  1.984,  1.080
 29820,  0.769,  1.001,  5.486,  1.926,  1.089
 29880,  0.812,  1.260,  6.026,  1.946,  1.178
 29940,  0.802,  1.074,  5.762,  1.982,  1.168
 30000,  0.808,  1.030,  5.707,  2.047,  1.246
 30060,  0.822,  1.114,  5.478,  2.010,  1.122
 30120,  0.831,  1.232,  5.942,  1.976,  1.184
 30180,  0.816,  1.123,  6.050,  2.031,  1.221
 30240,  0.795,  1.153,  6.040,  2.021,  1.203
 30300,  0.808,  1.119,  5.747,  1.980,  1.169
 30360,  0.823,  1.274,  6.073,  2.079,  1.183
 30420,  0.824,  1.051,  6.024,  2.039,  1.244
 30480,  0.820,  1.145,  5.879,  2.035,  1.186
 30540,  0.824,  1.380,  5.660,  2.053,  1.149
 30600,  0.838,  1.318,  5.903,  2.068,  1.227
 30660,  0.831,  1.292,  6.502,  2.097,  1.199
 30720,  0.821,  1.194,  5.985,  1.961,  1.158
 30780,  0.845,  1.235,  5.806,  1.984,  1.170
 30840,  0.829,  1.294,  5.771,  1.943,  1.209
 30900,  0.810,  1.293,  6.503,  2.095,  1.214
 30960, -9999.000, -9999.000, -9999.000, -9999.000, -9999.000
 31020,  0.719,  1.130,  5.198,  1.818,  1.078
 31080,  0.803,  1.255,  5.438,  2.091,  1.054
 31140,  0.792,  1.329,  6.017,  2.011,  1.099
 31200,  0.859,  1.329,  5.780,  2.065,  1.215
 31260,  0.826,  1.348,  5.897,  2.003,  1.146
 31320,  0.828,  1.305,  6.023,  2.084,  1.175
 31380,  0.844,  1.379,  6.351,  2.241,  1.264
 31440,  0.839,  1.184,  6.242,  2.061,  1.219
 31500,  0.832,  1.256,  5.770,  2.093,  1.173
 31560,  0.866,  1.348,  6.408,  2.213,  1.232
 31620,  0.873,  1.463,  6.450,  2.195,  1.229
 31680,  0.863,  1.269,  6.148,  2.151,  1.252
 31740,  0.835,  1.191,  6.586,  2.196,  1.133
 31800,  0.837,  1.281,  6.620,  2.189,  1.190
 31860,  0.853,  1.307,  6.460,  2.229,  1.234
 31920,  0.868,  1.465,  6.911,  2.177,  1.264
 31980,  0.854,  1.241,  6.722,  2.259,  1.261
 32040,  0.861,  1.306,  6.438,  2.158,  1.345
 32100,  0.838,  1.316,  6.375,  2.161,  1.305
 32160,  0.856,  1.311,  7.008,  2.174,  1.263
 32220,  0.851,  1.445,  6.830,  2.203,  1.283
 32280,  0.842,  1.340,  6.168,  2.231,  1.302
 32340,  0.847,  1.271,  6.974,  2.238,  1.223
 32400,  0.861,  1.379,  6.708,  2.269,  1.266
 32460,  0.823,  1.280,  7.075,  2.190,  1.365
 32520,  0.847,  1.403,  6.726,  2.290,  1.268
 32580,  0.849,  1.328,  6.349,  2.209,  1.263
 32640,  0.847,  1.336,  7.290,  2.324,  1.336
 32700,  0.852,  1.399,  7.190,  2.235,  1.366
 32760,  0.840,  1.412,  6.795,  2.116,  1.374
 32820, -9999.000, -9999.000, -9999.000, -9999.000, -9999.000
 32880,  0.848,  1.457,  6.417,  2.224,  1.196
 32940,  0.830,  1.520,  6.903,  2.161,  1.238
 33000,  0.860,  1.293,  6.489,  2.111,  1.252
 33060,  0.835,  1.293,  6.895,  2.272,  1.325
 33120,  0.865,  1.459,  6.959,  2.210,  1.336
 33180,  0.841,  1.475,  6.924,  2.198,  1.332
 33240,  0.806,  1.368,  6.509,  2.099,  1.313
 33300,  0.835,  1.371,  6.543,  2.143,  1.327
 33360,  0.841,  1.314,  7.002,  2.161,  1.324
 33420,  0.835,  1.209,  7.093,  2.263,  1.452
 33480,  0.839,  1.381,  6.592,  2.169,  1.369
 33540,  0.833,  1.320,  6.256,  2.207,  1.354
 33600,  0.853,  1.496,  6.670,  2.103,  1.396
 33660,  0.840,  1.356,  6.625,  2.192,  1.289
 33720,  0.869,  1.333,  6.690,  2.109,  1.336
 33780,  0.874,  1.342,  6.383,  2.172,  1.256
 33840,  0.893,  1.430,  6.192,  2.271,  1.383
 33900,  0.895,  1.437,  6.533,  2.172,  1.426
 33960,  0.898,  1.415,  6.758,  2.185,  1.419
 34020,  0.881,  1.415,  6.548,  2.247,  1.271
 34080,  0.891,  1.336,  6.643,  2.192,  1.435
 34140,  0.888,  1.205,  6.366,  2.293,  1.441
 34200,  0.880,  1.408,  6.867,  2.159,  1.468
 34260,  0.860,  1.407,  6.618,  2.235,  1.437
 34320,  0.876,  1.553,  6.302,  2.111,  1.441
 34380,  0.893,  1.179,  5.847,  2.185,  1.392
 34440,  0.871,  1.324,  6.759,  2.216,  1.420
 34500,  0.887,  1.330,  6.856,  2.226,  1.499
 34560,  0.877,  1.301,  6.128,  2.139,  1.391
 34620,  0.881,  1.345,  5.856,  2.122,  1.355
 34680, -9999.000, -9999.000, -9999.000, -9999.000, -9999.000
 34740,  0.809,  1.308,  5.801,  2.065,  1.364
 34800,  0.850,  1.257,  5.934,  2.064,  1.399
 34860,  0.870,  1.282,  5.494,  2.157,  1.406
 34920,  0.849,  1.254,  6.319,  2.147,  1.387
 34980,  0.832,  1.390,  6.470,  2.061,  1.515
 35040,  0.855,  1.394,  5.971,  2.061,  1.361
 35100,  0.833,  1.327,  5.936,  2.114,  1.381
 35160,  0.845,  1.393,  6.348,  2.093,  1.398
 35220,  0.842,  1.446,  6.525,  2.053,  1.373
 35280,  0.790,  1.367,  6.440,  2.076,  1.543
 35340,  0.808,  1.425,  6.334,  2.044,  1.458
 35400,  0.784,  1.430,  6.175,  2.014,  1.433
 35460,  0.789,  1.430,  6.150,  2.052,  1.370
 35520,  0.802,  1.502,  6.281,  1.920,  1.428
 35580,  0.780,  1.524,  6.423,  2.044,  1.469
 35640,  0.804,  1.352,  5.938,  1.986,  1.425
 35700,  0.797,  1.281,  6.166,  1.899,  1.447
 35760,  0.807,  1.451,  6.449,  1.978,  1.549
 35820,  0.806,  1.462,  6.500,  1.971,  1.409
 35880,  0.773,  1.302,  5.920,  1.928,  1.401
 35940,  0.769,  1.470,  5.842,  1.925,  1.491
 36000,  0.756,  1.401,  5.880,  1.847,  1.351
 36060,  0.733,  1.486,  5.770,  1.978,  1.412
 36120,  0.750,  1.468,  6.050,  1.937,  1.286
 36180,  0.782,  1.242,  5.552,  1.937,  1.297
 36240,  0.773,  1.460,  6.095,  1.961,  1.413
 36300,  0.776,  1.697,  6.011,  1.970,  1.321
 36360,  0.775,  1.428,  5.317,  1.929,  1.408
 36420,  0.793,  1.382,  5.742,  1.964,  1.422
 36480,  0.779,  1.462,  6.038,  2.037,  1.350
 36540,  0.757,  1.432,  5.088,  1.984,  1.416
 36600,  0.722,  1.420,  5.384,  1.811,  1.216
 36660,  0.750,  1.425,  5.486,  1.863,  1.353
 36720,  0.757,  1.350,  5.265,  1.847,  1.263
 36780,  0.757,  1.262,  5.195,  1.838,  1.175
 36840,  0.770,  1.432,  5.893,  1.892,  1.382
 36900,  0.770,  1.273,  5.533,  1.811,  1.362
 36960,  0.760,  1.336,  5.890,  1.863,  1.424
 37020,  0.763,  1.336,  5.686,  1.813,  1.445
 37080,  0.792,  1.409,  5.648,  1.769,  1.346
 37140,  0.769,  1.439,  6.183,  1.714,  1.477
 37200,  0.760,  1.281,  5.688,  1.800,  1.414
 37260,  0.760,  1.379,  6.021,  1.706,  1.342
 37320,  0.780,  1.378,  6.219,  1.743,  1.389
 37380,  0.762,  1.313,  6.333,  1.779,  1.399
 37440,  0.760,  1.257,  5.724,  1.551,  1.306
 37500,  0.753,  1.116,  5.462,  1.691,  1.337
 37560,  0.774,  1.351,  6.103,  1.697,  1.456
 37620,  0.783,  1.138,  6.130,  1.696,  1.440
 37680,  0.779,  1.285,  5.859,  1.646,  1.369
 37740,  0.787,  1.279,  5.656,  1.678,  1.351
 37800,  0.762,  1.315,  6.178,  1.681,  1.427
 37860,  0.821,  1.113,  6.494,  1.735,  1.460
 37920,  0.791,  1.072,  5.571,  1.647,  1.333
 37980,  0.783,  1.099,  5.537,  1.630,  1.383
 38040,  0.846,  1.121,  6.081,  1.685,  1.366
 38100,  0.838,  1.183,  6.493,  1.697,  1.427
 38160,  0.824,  0.991,  6.008,  1.644,  1.385
 38220,  0.829,  1.054,  5.899,  1.580,  1.410
 38280,  0.815,  1.321,  6.178,  1.654,  1.415
 38340,  0.848,  1.342,  5.338,  1.785,  1.459
 38400,  0.817,  1.395,  4.922,  1.723,  1.059
 38460,  0.742,  1.059,  5.449,  1.559,  1.383
 38520,  0.769,  0.949,  5.299,  1.594,  1.371
 38580,  0.773,  1.089,  5.760,  1.587,  1.323
 38640,  0.770,  0.979,  5.494,  1.597,  1.353
 38700,  0.797,  1.132,  5.914,  1.506,  1.417
 38760,  0.759,  1.035,  5.384,  1.572,  1.322
 38820,  0.767,  0.923,  5.594,  1.453,  1.407
 38880,  0.762,  1.066,  6.268,  1.544,  1.321
 38940,  0.771,  1.013,  6.415,  1.600,  1.372
 39000,  0.796,  1.117,  5.750,  1.606,  1.443
 39060,  0.781,  1.017,  5.981,  1.600,  1.418
 39120,  0.803,  0.959,  6.312,  1.554,  1.407
 39180,  0.767,  0.988,  5.732,  1.643,  1.390
 39240,  0.758,  0.940,  5.684,  1.661,  1.334
 39300,  0.798,  0.937,  5.825,  1.599,  1.416
 39360,  0.774,  1.070,  6.257,  1.704,  1.297
 39420,  0.771,  1.051,  6.544,  1.531,  1.240
 39480,  0.778,  1.038,  5.758,  1.520,  1.401
 39540,  0.763,  0.915,  5.814,  1.689,  1.258
 39600,  0.776,  0.994,  6.444,  1.667,  1.408
 39660,  0.746,  1.151,  6.231,  1.578,  1.372
 39720,  0.776,  1.074,  5.963,  1.470,  1.302
 39780,  0.777,  1.050,  6.006,  1.558,  1.314
 39840,  0.762,  1.223,  6.426,  1.641,  1.443
 39900,  0.769,  0.958,  6.307,  1.598,  1.240
 39960,  0.776,  0.996,  6.424,  1.631,  1.407
 40020,  0.794,  1.053,  6.076,  1.695,  1.361
 40080,  0.802,  1.071,  5.959,  1.623,  1.333
 40140,  0.773,  1.114,  6.083,  1.587,  1.341
 40200,  0.778,  1.149,  6.745,  1.724,  1.356
 40260,  0.707,  0.985,  5.957,  1.639,  1.406
 40320,  0.772,  1.097,  6.194,  1.702,  1.283
 40380,  0.738,  1.070,  5.534,  1.606,  1.419
 40440,  0.746,  1.082,  6.560,  1.623,  1.356
 40500,  0.755,  1.118,  6.326,  1.608,  1.356
 40560,  0.724,  1.016,  6.299,  1.574,  1.402
 40620,  0.731,  1.069,  5.784,  1.412,  1.347
 40680,  0.747,  1.140,  6.166,  1.563,  1.401
 40740,  0.737,  1.157,  6.708,  1.578,  1.412
 40800,  0.746,  1.079,  5.420,  1.537,  1.403
 40860,  0.762,  1.014,  5.973,  1.525,  1.342
 40920,  0.718,  1.156,  6.026,  1.569,  1.347
 40980,  0.724,  1.229,  6.291,  1.538,  1.460
 41040,  0.743,  1.185,  5.926,  1.645,  1.454
 41100,  0.728,  1.057,  5.826,  1.577,  1.500
 41160,  0.743,  1.042,  6.143,  1.605,  1.391
 41220,  0.702,  1.044,  6.362,  1.602,  1.537
 41280,  0.732,  1.137,  6.067,  1.554,  1.462
 41340,  0.732,  1.120,  5.744,  1.638,  1.495
 41400,  0.724,  1.213,  6.238,  1.569,  1.481
 41460,  0.735,  1.056,  6.294,  1.538,  1.450
 41520,  0.727,  1.081,  6.484,  1.494,  1.464
 41580,  0.738,  1.088,  6.156,  1.646,  1.527
 41640,  0.747,  1.109,  5.858,  1.518,  1.478
 41700,  0.734,  1.140,  5.902,  1.618,  1.464
 41760,  0.740,  1.103,  6.039,  1.520,  1.562
 41820,  0.739,  1.394,  6.268,  1.544,  1.665
 41880,  0.730,  1.381,  5.802,  1.475,  1.552
 41940,  0.734,  1.169,  5.889,  1.537,  1.555
 42000,  0.765,  1.321,  5.896,  1.593,  1.601
 42060, -9999.000, -9999.000, -9999.000, -9999.000, -9999.000
 42120,  0.688,  1.192,  5.014,  1.303,  1.339
 42180,  0.698,  1.242,  5.539,  1.556,  1.451
 42240,  0.741,  1.198,  5.762,  1.442,  1.640
 42300,  0.737,  1.275,  5.974,  1.512,  1.569
 42360,  0.713,  1.165,  5.940,  1.542,  1.537
 42420,  0.712,  1.054,  5.527,  1.474,  1.513
 42480,  0.740,  1.342,  5.824,  1.518,  1.573
 42540,  0.723,  1.239,  6.467,  1.520,  1.618
 42600,  0.738,  1.384,  6.315,  1.508,  1.534
 42660,  0.735,  1.310,  5.940,  1.544,  1.614
 42720,  0.758,  1.219,  6.296,  1.559,  1.413
 42780,  0.779,  1.293,  6.582,  1.596,  1.691
 42840,  0.728,  1.212,  6.027,  1.572,  1.467
 42900,  0.742,  1.264,  5.644,  1.531,  1.485
 42960,  0.777,  0.993,  5.989,  1.654,  1.627
 43020,  0.769,  1.174,  6.346,  1.602,  1.510
 43080,  0.777,  1.180,  6.202,  1.630,  1.536
 43140,  0.777,  1.139,  5.970,  1.607,  1.501
 43200,  0.752,  1.165,  6.419,  1.649,  1.557
 43260,  0.746,  1.285,  6.343,  1.687,  1.516
 43320,  0.797,  1.161,  5.999,  1.650,  1.552
 43380,  0.789,  1.232,  6.196,  1.556,  1.591
 43440,  0.807,  1.129,  6.495,  1.723,  1.520
 43500,  0.789,  1.150,  6.288,  1.648,  1.464
 43560,  0.819,  1.098,  5.966,  1.681,  1.440
 43620,  0.828,  1.188,  6.816,  1.615,  1.575
 43680,  0.807,  1.006,  6.072,  1.674,  1.485
 43740,  0.755,  0.927,  6.282,  1.590,  1.386
 43800,  0.778,  1.069,  6.838,  1.742,  1.462
 43860,  0.799,  1.125,  7.163,  1.654,  1.536
 43920, -9999.000, -9999.000, -9999.000, -9999.000, -9999.000
 43980,  0.755,  0.978,  6.193,  1.423,  1.415
 44040,  0.780,  1.059,  6.550,  1.645,  1.362
 44100,  0.766,  1.164,  6.570,  1.666,  1.379
 44160,  0.786,  0.987,  6.340,  1.595,  1.390
 44220,  0.760,  1.068,  6.387,  1.686,  1.436
 44280,  0.780,  1.054,  6.799,  1.562,  1.339
 44340,  0.769,  1.153,  6.962,  1.612,  1.355
 44400,  0.748,  0.996,  6.648,  1.552,  1.380
 44460,  0.754,  0.964,  6.468,  1.536,  1.373
 44520,  0.780,  1.007,  6.769,  1.474,  1.434
 44580,  0.777,  1.045,  6.845,  1.563,  1.448
 44640,  0.782,  1.109,  6.328,  1.595,  1.462
 44700,  0.780,  0.827,  6.101,  1.601,  1.495
 44760,  0.777,  1.107,  6.609,  1.547,  1.416
 44820,  0.790,  1.037,  7.016,  1.578,  1.470
 44880,  0.792,  0.926,  6.408,  1.690,  1.386
 44940,  0.780,  1.124,  6.193,  1.568,  1.398
 45000,  0.788,  1.080,  6.529,  1.553,  1.419
 45060,  0.749,  0.864,  6.548,  1.500,  1.400
 45120,  0.766,  0.857,  6.254,  1.589,  1.461
 45180,  0.781,  0.926,  6.112,  1.585,  1.304
 45240,  0.808,  1.025,  6.623,  1.579,  1.361
 45300,  0.776,  0.928,  6.885,  1.569,  1.334
 45360,  0.773,  0.794,  6.305,  1.496,  1.337
 45420,  0.745,  0.834,  6.032,  1.477,  1.376
 45480,  0.794,  0.937,  6.697,  1.553,  1.333
 45540,  0.811,  1.046,  6.831,  1.542,  1.452
 45600,  0.741,  0.777,  6.437,  1.493,  1.323
 45660,  0.760,  0.804,  6.323,  1.487,  1.373
 45720,  0.705,  0.784,  6.194,  1.457,  1.428
 45780, -9999.000, -9999.000, -9999.000, -9999.000, -9999.000
 45840,  0.879,  1.059,  6.443,  1.596,  1.329
 45900,  0.895,  1.026,  6.346,  1.657,  1.366
 45960,  0.938,  1.138,  7.333,  1.820,  1.545
 46020,  0.963,  1.037,  7.088,  1.739,  1.611
 46080,  0.973,  1.119,  7.675,  1.761,  1.679
 46140,  0.963,  1.085,  7.345,  1.837,  1.655
 46200,  0.938,  1.085,  7.452,  1.799,  1.502
 46260,  0.914,  1.194,  7.379,  1.716,  1.628
 46320,  0.917,  0.978,  7.450,  1.800,  1.521
 46380,  0.926,  1.109,  7.339,  1.802,  1.531
 46440,  0.963,  1.082,  6.871,  1.776,  1.660
 46500,  0.957,  0.929,  7.283,  1.819,  1.567
 46560,  0.948,  1.198,  7.117,  1.694,  1.618
 46620,  0.932,  1.000,  7.221,  1.763,  1.662
 46680,  0.925,  1.051,  7.115,  1.731,  1.442
 46740,  0.979,  0.953,  6.493,  1.833,  1.460
 46800,  1.035,  1.077,  7.046,  1.857,  1.761
 46860,  1.080,  1.266,  7.529,  1.847,  2.266
 46920,  1.228,  1.393,  7.135,  2.228,  2.317
 46980,  1.101,  1.328,  7.286,  2.172,  2.116
 47040,  1.062,  1.311,  7.519,  2.019,  1.925
 47100,  1.014,  1.209,  7.499,  1.875,  1.858
 47160,  1.023,  1.237,  7.108,  1.910,  1.676
 47220,  0.946,  0.971,  6.297,  1.838,  1.579
 47280,  0.912,  1.036,  6.811,  1.737,  1.574
 47340,  0.867,  0.858,  6.721,  1.716,  1.530
 47400,  0.871,  0.869,  6.203,  1.614,  1.466
 47460,  0.861,  0.777,  6.027,  1.542,  1.346
 47520,  0.846,  0.825,  6.094,  1.523,  1.451
 47580,  0.840,  0.789,  6.135,  1.599,  1.422
 47640,  0.846,  0.964,  4.811,  1.448,  1.153
 47700,  0.832,  0.749,  5.426,  1.483,  1.252
 47760,  0.832,  0.844,  5.815,  1.553,  1.304
 47820,  0.833,  0.816,  5.409,  1.571,  1.376
 47880,  0.815,  0.898,  5.585,  1.549,  1.377
 47940,  0.820,  0.842,  5.472,  1.458,  1.336
 48000,  0.807,  0.675,  5.181,  1.565,  1.260
 48060,  0.803,  0.861,  5.389,  1.493,  1.300
 48120,  0.836,  0.675,  5.839,  1.455,  1.399
 48180,  0.848,  0.736,  5.811,  1.472,  1.273
 48240,  0.807,  0.856,  5.260,  1.552,  1.253
 48300,  0.833,  0.874,  5.129,  1.390,  1.088
 48360,  0.852,  0.855,  5.836,  1.530,  1.273
 48420,  0.823,  1.009,  6.266,  1.467,  1.274
 48480,  0.836,  0.796,  5.259,  1.504,  1.179
 48540,  0.785,  0.912,  4.866,  1.411,  1.170
 48600,  0.838,  1.049,  5.485,  1.501,  1.257
 48660,  0.835,  1.012,  5.865,  1.445,  1.354
 48720,  0.842,  0.914,  5.502,  1.450,  1.276
 48780,  0.818,  1.087,  4.991,  1.465,  1.168
 48840,  0.843,  1.090,  5.061,  1.408,  1.265
 48900,  0.863,  1.168,  5.636,  1.502,  1.359
 48960,  0.851,  1.216,  5.544,  1.543,  1.312
 49020,  0.831,  1.060,  5.439,  1.484,  1.264
 49080,  0.844,  1.051,  4.850,  1.487,  1.342
 49140,  0.851,  1.209,  4.901,  1.513,  1.324
 49200,  0.921,  1.150,  5.718,  1.575,  1.333
 49260,  0.898,  1.529,  5.754,  1.770,  1.419
 49320,  0.915,  1.317,  5.292,  1.769,  1.333
 49380,  0.909,  1.474,  5.458,  1.795,  1.387
 49440, -9999.000, -9999.000, -9999.000, -9999.000, -9999.000
 49500,  0.874,  1.506,  4.153,  1.533,  1.374
 49560,  0.873,  1.727,  4.814,  1.597,  1.269
 49620,  0.905,  1.633,  4.948,  1.606,  1.333
 49680,  0.897,  1.599,  4.728,  1.637,  1.226
 49740,  0.917,  1.742,  4.864,  1.597,  1.219
 49800,  0.894,  1.900,  5.637,  1.678,  1.313
 49860,  0.926,  1.987,  5.662,  1.639,  1.342
 49920,  0.943,  1.898,  4.984,  1.518,  1.267
 49980,  0.974,  1.879,  5.435,  1.779,  1.307
 50040,  0.959,  1.923,  5.682,  1.687,  1.323
 50100,  0.991,  2.080,  5.313,  1.799,  1.445
 50160,  1.021,  2.103,  5.892,  1.806,  1.444
 50220,  1.104,  2.385,  6.389,  1.798,  1.561
 50280,  1.422,  2.926,  6.438,  2.255,  1.831
 50340,  1.388,  2.566,  6.745,  2.257,  1.893
 50400,  1.532,  3.338,  7.901,  2.504,  2.093
 50460,  1.589,  3.492,  7.858,  2.648,  2.224
 50520,  1.652,  3.444,  8.013,  2.671,  2.224
 50580,  1.639,  3.143,  8.125,  2.607,  2.210
 50640,  1.679,  3.420,  7.939,  2.760,  2.157
 50700,  1.813,  3.405,  7.634,  2.720,  2.303
 50760,  1.736,  3.511,  8.338,  2.655,  2.356
 50820,  1.711,  3.260,  8.073,  2.787,  2.412
 50880,  1.750,  3.460,  7.632,  2.798,  2.392
 50940,  1.785,  3.618,  7.085,  2.734,  2.313
 51000,  1.818,  3.380,  7.885,  2.810,  2.406
 51060,  1.823,  3.327,  7.882,  2.864,  2.300
 51120,  1.747,  3.044,  7.634,  2.734,  2.408
 51180,  1.784,  3.431,  7.689,  2.745,  2.323
 51240,  1.840,  3.392,  6.834,  2.854,  2.347
 51300, -9999.000, -9999.000, -9999.000, -9999.000, -9999.000
 51360,  1.763,  3.356,  7.181,  2.633,  2.237
 51420,  1.751,  3.319,  7.040,  2.688,  2.151
 51480,  1.792,  3.552,  6.628,  2.652,  2.290
 51540,  1.596,  3.633,  6.360,  2.578,  2.024
 51600,  1.451,  4.181,  5.730,  2.313,  1.711
 51660,  1.167,  4.747,  5.825,  1.961,  1.479
 51720,  1.209,  4.839,  6.175,  1.869,  1.439
 51780,  1.063,  5.278,  5.751,  1.731,  1.196
 51840,  1.078,  5.407,  6.309,  1.725,  1.273
 51900,  1.045,  5.454,  6.123,  1.775,  1.295
 51960,  1.122,  4.741,  5.591,  1.745,  1.119
 52020,  1.113,  5.130,  6.311,  1.804,  1.182
 52080,  1.149,  5.007,  5.896,  1.783,  1.160
 52140,  1.184,  4.461,  5.807,  1.730,  1.253
 52200,  1.201,  4.518,  6.786,  1.840,  1.487
 52260,  1.247,  4.428,  6.573,  1.836,  1.547
 52320,  1.246,  4.441,  6.417,  2.036,  1.607
 52380,  1.270,  4.707,  6.591,  2.124,  1.647
 52440,  1.252,  5.406,  6.183,  1.892,  1.466
 52500,  1.273,  5.826,  6.244,  1.811,  1.320
 52560,  1.254,  5.883,  6.248,  1.772,  1.388
 52620,  1.284,  5.482,  6.548,  1.831,  1.372
 52680,  1.314,  4.998,  6.740,  1.901,  1.569
 52740,  1.328,  4.938,  6.433,  1.981,  1.644
 52800,  1.384,  4.854,  6.082,  2.127,  1.515
 52860,  1.458,  5.098,  6.403,  2.060,  1.664
 52920,  1.437,  5.369,  5.986,  2.191,  1.588
 52980,  1.476,  5.516,  6.434,  2.122,  1.549
 53040,  1.536,  5.973,  6.627,  2.298,  1.805
 53100,  1.573,  5.924,  6.539,  2.317,  1.801
 53160, -9999.000, -9999.000, -9999.000, -9999.000, -9999.000
 53220,  1.528,  5.540,  6.553,  2.215,  1.678
 53280,  1.546,  6.137,  6.410,  2.229,  1.580
 53340,  1.601,  6.598,  7.068,  2.407,  1.617
 53400,  1.658,  6.927,  6.498,  2.403,  1.742
 53460,  1.658,  6.728,  6.814,  2.350,  1.894
 53520,  1.682,  6.919,  6.306,  2.365,  1.841
 53580,  1.739,  7.588,  6.343,  2.319,  2.151
 53640,  1.750,  7.764,  7.100,  2.432,  3.644
 53700,  1.811,  8.287,  7.259,  2.343,  4.218
 53760,  1.838,  9.014,  7.112,  2.533,  4.686
 53820,  1.787,  8.188,  6.700,  2.345,  3.314
 53880,  1.686,  6.960,  6.033,  2.175,  2.485
 53940,  1.799,  6.669,  6.285,  2.366,  2.059
 54000,  1.845,  7.428,  6.839,  2.359,  3.425
 54060,  1.748,  8.657,  6.470,  2.300,  2.437
 54120,  1.789,  9.109,  7.139,  2.324,  1.914
 54180,  1.912,  8.710,  6.662,  2.359,  1.958
 54240,  1.927,  9.436,  7.278,  2.352,  2.047
 54300,  1.892, 10.108,  7.590,  2.307,  1.537
 54360,  2.015, 10.204,  7.198,  2.462,  1.454
 54420,  2.073, 10.187,  7.159,  2.413,  1.532
 54480,  2.036, 11.456,  7.988,  2.507,  1.615
 54540,  2.107, 13.314,  7.832,  2.372,  1.524
 54600,  2.213, 15.837,  8.099,  2.439,  1.532
 54660,  2.266, 16.614,  8.411,  2.367,  1.479
 54720,  2.310, 17.432,  8.457,  2.291,  1.443
 54780,  2.472, 19.011,  8.368,  2.431,  1.556
 54840,  2.630, 21.382,  8.346,  2.525,  1.579
 54900,  2.819, 20.904,  9.473,  2.663,  1.688
 54960,  2.835, 20.581,  9.134,  2.756,  1.679
 55020,  2.725, 18.384,  6.845,  2.906,  1.571
 55080,  2.855, 18.724,  8.498,  2.814,  1.691
 55140,  2.868, 17.824,  8.101,  2.772,  1.625
 55200,  2.858, 17.667,  8.508,  2.847,  1.727
 55260,  2.939, 17.983,  8.258,  2.859,  1.607
 55320,  2.986, 17.298,  7.821,  2.826,  1.554
 55380,  2.959, 15.925,  7.735,  2.822,  1.663
 55440,  2.828, 15.380,  6.788,  2.708,  1.419
 55500,  2.835, 14.589,  7.261,  2.935,  1.470
 55560,  3.054, 15.154,  7.150,  2.993,  1.565
 55620,  3.095, 14.822,  7.736,  3.036,  1.515
 55680, -9999.000, -9999.000, -9999.000, -9999.000, -9999.000
 55740, -9999.000, -9999.000, -9999.000, -9999.000, -9999.000
 55800, -9999.000, -9999.000, -9999.000, -9999.000, -9999.000
 55860, -9999.000, -9999.000, -9999.000, -9999.000, -9999.000
 55920, -9999.000, -9999.000, -9999.000, -9999.000, -9999.000
 55980, -9999.000, -9999.000, -9999.000, -9999.000, -9999.000
 56040, -9999.000, -9999.000, -9999.000, -9999.000, -9999.000
 56100, -9999.000, -9999.000, -9999.000, -9999.000, -9999.000
 56160, -9999.000, -9999.000, -9999.000, -9999.000, -9999.000
 56220, -9999.000, -9999.000, -9999.000, -9999.000, -9999.000
 56280, -9999.000, -9999.000, -9999.000, -9999.000, -9999.000
 56340, -9999.000, -9999.000, -9999.000, -9999.000, -9999.000
 56400, -9999.000, -9999.000, -9999.000, -9999.000, -9999.000
 56460, -9999.000, -9999.000, -9999.000, -9999.000, -9999.000
 56520, -9999.000, -9999.000, -9999.000, -9999.000, -9999.000
 56580, -9999.000, -9999.000, -9999.000, -9999.000, -9999.000
 56640, -9999.000, -9999.000, -9999.000, -9999.000, -9999.000
 56700,  4.585, 31.026, 15.558,  4.221,  3.104
 56760,  4.766, 23.545, 14.707,  3.824,  2.182
 56820,  4.651, 22.388, 13.211,  3.647,  1.970
 56880,  4.599, 22.277, 13.523,  3.705,  2.085
 56940,  4.579, 22.390, 12.838,  3.547,  2.153
 57000,  4.561, 21.584, 12.288,  3.477,  2.215
 57060,  4.521, 21.356, 12.373,  3.705,  2.332
 57120,  4.663, 21.606, 11.343,  3.502,  2.391
 57180,  4.723, 21.583, 11.163,  3.465,  2.370
 57240,  4.712, 21.472, 10.383,  3.714,  2.202
 57300,  4.696, 20.309, 11.412,  3.557,  2.234
 57360,  4.696, 20.335, 10.654,  3.638,  2.098
 57420,  4.567, 18.030, 10.838,  3.569,  2.047
 57480,  4.501, 17.004,  8.901,  3.641,  1.902
 57540,  4.416, 16.890, 10.456,  3.452,  2.070
 57600,  4.452, 15.662,  8.363,  3.372,  1.764
 57660,  4.564, 16.205,  9.351,  3.411,  1.914
 57720,  4.428, 15.005,  8.485,  3.444,  1.850
 57780,  4.543, 16.017,  9.178,  3.544,  2.033
 57840,  4.820, 16.459,  8.587,  3.608,  1.751
 57900,  4.816, 16.967,  9.403,  3.712,  1.944
 57960,  4.895, 16.970,  9.036,  3.557,  1.855
 58020,  4.989, 17.422,  9.240,  3.591,  1.866
 58080,  5.220, 18.363,  9.871,  3.577,  1.965
 58140,  5.289, 17.930,  8.143,  3.906,  1.802
 58200,  5.253, 17.736,  9.178,  3.818,  1.752
 58260,  5.188, 16.913,  9.170,  3.874,  1.695
 58320,  4.900, 15.774,  9.711,  3.747,  1.788
 58380,  4.898, 17.009,  9.326,  3.920,  1.896
 58440,  5.245, 17.933,  9.920,  3.973,  1.854
 58500,  5.255, 18.141,  8.998,  4.312,  1.738
 58560, -9999.000, -9999.000, -9999.000, -9999.000, -9999.000
 58620,  4.750, 15.438,  6.915,  3.997,  1.701
 58680,  4.988, 16.169,  7.555,  3.870,  1.703
 58740,  5.081, 15.937,  9.055,  4.036,  1.867
 58800,  4.956, 15.693,  8.692,  4.165,  1.746
 58860,  5.046, 15.729,  8.940,  4.015,  1.716
 58920,  5.074, 15.213,  8.768,  4.020,  1.655
 58980,  5.265, 15.408,  8.735,  3.916,  1.787
 59040,  5.515, 16.793,  8.974,  3.891,  1.852
 59100,  5.731, 16.901,  8.163,  4.072,  1.734
 59160,  5.575, 15.788,  8.678,  4.164,  1.808
 59220,  5.303, 14.825,  8.967,  4.008,  1.726
 59280,  5.380, 14.587,  8.591,  3.835,  1.669
 59340,  5.527, 14.863,  7.536,  3.918,  1.562
 59400,  5.718, 15.604,  8.396,  3.969,  1.743
 59460,  5.797, 15.715,  8.221,  4.087,  1.701
 59520,  5.734, 14.892,  8.737,  4.183,  1.740
 59580,  5.753, 14.815,  8.597,  3.978,  1.707
 59640,  5.717, 15.199,  8.689,  4.025,  1.615
 59700,  5.858, 15.155,  8.048,  4.004,  1.654
 59760,  5.863, 15.198,  8.816,  4.007,  1.681
 59820,  6.093, 15.810,  7.943,  4.045,  1.628
 59880,  6.415, 15.901,  8.521,  4.187,  1.726
 59940,  6.266, 15.570,  9.205,  4.096,  1.676
 60000,  6.166, 15.833,  9.083,  4.207,  1.701
 60060,  6.332, 14.801,  8.738,  4.080,  1.497
 60120,  6.373, 14.886,  8.641,  4.177,  1.562
 60180,  6.411, 14.778,  8.623,  4.137,  1.657
 60240,  6.356, 14.533,  8.753,  3.997,  1.476
 60300,  6.622, 14.449,  8.468,  4.017,  1.442
 60360,  6.498, 13.563,  8.693,  4.146,  1.455
 60420,  6.594, 10.929, 10.602,  4.097,  1.710
 60480,  6.648, 13.185,  7.342,  4.104,  1.311
 60540,  6.511, 12.487,  8.811,  4.175,  1.296
 60600,  6.742, 13.214,  7.948,  4.094,  1.341
 60660,  6.993, 13.494,  8.301,  4.335,  1.353
 60720,  6.965, 13.193,  9.281,  4.467,  1.496
 60780,  7.004, 13.512,  8.712,  4.334,  1.434
 60840,  6.939, 12.606,  9.244,  4.496,  1.419
 60900,  6.684, 13.002,  9.174,  4.239,  1.540
 60960,  6.920, 12.621,  8.876,  4.490,  1.426
 61020,  7.314, 13.633,  9.040,  4.664,  1.485
 61080,  7.495, 14.186,  9.327,  4.520,  1.434
 61140,  7.593, 14.563,  9.734,  4.746,  1.377
 61200,  7.607, 14.099,  9.862,  4.662,  1.449
 61260,  7.691, 13.774,  8.949,  4.666,  1.350
 61320,  7.612, 13.523, 10.226,  4.863,  1.528
 61380,  7.554, 13.578,  9.874,  4.748,  1.497
 61440,  7.451, 13.390,  9.853,  4.827,  1.520
 61500,  7.273, 11.894,  9.587,  4.714,  1.458
 61560,  7.380, 12.633,  9.292,  4.771,  1.394
 61620,  7.450, 12.501,  9.273,  4.754,  1.316
 61680,  7.512, 12.055,  8.890,  4.709,  1.320
 61740,  7.529, 12.538,  9.787,  4.602,  1.517
 61800,  7.685, 12.319,  8.917,  4.424,  1.275
 61860,  7.639, 11.719,  9.044,  4.615,  1.232
 61920,  7.649, 11.286,  8.948,  4.476,  1.274
 61980,  7.698, 11.880,  9.060,  4.611,  1.206
 62040,  7.817, 11.423,  8.903,  4.585,  1.141
 62100,  7.641, 10.969,  9.192,  4.704,  1.270
 62160,  7.442, 11.056,  9.355,  4.542,  1.241
 62220,  7.432, 10.311,  8.855,  4.412,  1.158
 62280, -9999.000, -9999.000, -9999.000, -9999.000, -9999.000
 62340,  7.178, 10.865,  9.262,  4.429,  1.092
 62400,  7.259, 10.731,  9.312,  4.399,  1.069
 62460,  7.331, 10.347,  9.693,  4.528,  1.095
 62520,  7.218, 10.268,  9.021,  4.329,  1.049
 62580,  7.400,  9.860,  9.006,  4.287,  1.011
 62640,  7.543, 10.420,  8.404,  4.688,  0.966
 62700,  7.811, 10.628,  8.612,  4.660,  1.134
 62760,  7.997, 10.780,  8.699,  4.852,  1.083
 62820,  8.140, 10.742,  9.227,  5.111,  1.061
 62880,  7.800, 11.241,  9.935,  5.111,  1.098
 62940,  7.977, 12.372,  9.376,  5.158,  1.086
 63000,  7.895, 13.460,  9.949,  5.058,  1.239
 63060,  7.768, 11.217,  9.404,  4.886,  1.140
 63120,  7.856, 11.187,  9.196,  4.755,  1.035
 63180,  7.850, 11.005,  8.627,  4.600,  1.105
 63240,  8.202, 11.283,  8.522,  4.900,  1.046
 63300,  7.962, 11.263,  9.471,  4.897,  1.005
 63360,  8.278, 11.349,  9.047,  4.774,  1.024
 63420,  8.197, 10.597,  9.257,  4.736,  1.041
 63480,  8.420, 10.858,  8.461,  4.734,  0.983
 63540,  8.626, 10.845,  9.706,  4.921,  1.069
 63600,  8.561, 10.398,  8.369,  4.819,  1.000
 63660,  8.506, 10.671,  9.598,  4.778,  1.042
 63720,  8.497, 10.399,  8.542,  4.937,  1.010
 63780,  8.174, 10.217,  8.572,  4.683,  1.020
 63840,  8.515, 10.050,  7.599,  4.754,  0.955
 63900,  8.717,  9.673,  8.080,  4.821,  0.855
 63960,  8.678,  9.570,  7.948,  4.688,  0.868
 64020,  9.088,  9.757,  7.926,  4.839,  0.886
 64080,  9.105,  9.915,  8.685,  4.773,  0.895
 64140,  8.838,  8.709,  6.894,  3.980,  0.555
 64200,  9.279,  8.983,  7.001,  4.995,  0.654
 64260,  9.561, 10.012,  7.452,  5.022,  0.750
 64320,  9.530, 10.452,  7.776,  5.033,  0.812
 64380,  9.724, 10.728,  7.970,  5.167,  0.827
 64440,  9.592, 10.019,  8.787,  5.415,  0.842
 64500,  9.498,  9.925,  9.440,  5.166,  0.799
 64560,  9.626,  9.769,  8.336,  5.122,  0.778
 64620,  9.908,  9.955,  8.951,  5.354,  0.849
 64680, 10.063, 10.150,  9.047,  5.288,  0.739
 64740,  9.909, 10.115, 10.484,  5.555,  0.802
 64800,  9.663,  9.786,  9.595,  5.260,  0.781
 64860,  9.852, 10.145, 10.080,  5.417,  0.827
 64920,  9.890,  9.904,  8.772,  5.373,  0.844
 64980,  9.751, 10.108,  9.336,  5.548,  0.840
 65040,  9.729, 10.418, 10.027,  5.686,  0.826
 65100, 10.005,  9.942,  9.021,  5.290,  0.819
 65160, 10.014,  9.602,  9.629,  5.591,  0.818
 65220,  9.876,  9.608,  9.306,  5.435,  0.811
 65280,  9.998,  9.799,  9.367,  5.596,  0.782
 65340,  9.606,  9.511,  9.850,  5.419,  0.844
 65400, 10.166,  9.131,  9.271,  5.512,  0.778
 65460, 10.114,  9.393,  8.570,  5.622,  0.775
 65520, 10.312,  9.352,  9.059,  5.546,  0.767
 65580, 10.087,  9.345,  9.262,  5.703,  0.843
 65640, 10.170,  9.859,  9.242,  5.848,  0.760
 65700, 10.391, 10.012,  8.801,  5.683,  0.828
 65760, 10.615, 10.040,  7.730,  5.747,  0.750
 65820, 10.837, 10.059,  9.286,  5.921,  0.774
 65880, 10.941, 10.365,  9.136,  6.282,  0.792
 65940, 10.963, 10.302,  8.604,  6.297,  0.919
 66000, 10.906,  7.369,  7.447,  5.681,  0.917
 66060, 10.805,  9.819,  8.877,  6.087,  0.748
 66120, 10.672, 10.044,  9.128,  6.079,  0.718
 66180, 10.634,  9.955, 10.185,  6.141,  0.808
 66240, 10.652,  9.277,  8.667,  5.838,  0.648
 66300, 10.720,  9.648,  8.532,  6.009,  0.670
 66360, 10.973,  8.860,  8.956,  5.883,  0.718
 66420, 10.843,  8.056,  7.341,  5.717,  0.631
 66480, 10.864,  7.717,  8.137,  5.920,  0.669
 66540, 10.825,  8.252,  8.652,  5.965,  0.722
 66600, 11.238,  9.196,  7.714,  5.964,  0.694
 66660, 11.584,  9.429,  9.060,  6.282,  0.757
 66720, 11.413,  9.658,  8.719,  6.192,  0.681
 66780, 11.362,  9.576,  9.134,  6.437,  0.831
 66840, 11.510,  9.173,  8.158,  6.251,  0.709
 66900, 11.591,  9.644,  8.448,  6.354,  0.650
 66960, 11.539,  9.225,  7.310,  6.110,  0.602
 67020, 11.249,  8.515,  9.257,  6.157,  0.788
 67080, 10.959,  8.815,  8.323,  5.800,  0.602
 67140, 10.846,  8.017,  8.287,  5.751,  0.642
 67200, 10.945,  8.185,  8.711,  5.608,  0.595
 67260, 11.127,  7.940,  7.612,  5.749,  0.629
 67320, 10.841,  8.180,  8.552,  5.770,  0.669
 67380, 10.558,  7.865,  7.836,  5.425,  0.524
 67440, 10.743,  7.982,  8.687,  5.687,  0.525
 67500, 10.677,  8.264,  8.697,  5.528,  0.664
 67560, 10.546,  7.888,  9.481,  5.682,  0.575
 67620, 10.231,  7.638,  9.914,  5.410,  0.614
 67680, 10.330,  8.107,  8.582,  5.372,  0.564
 67740, 10.518,  7.282,  8.061,  5.350,  0.530
 67800, 10.489,  8.133,  9.986,  5.348,  0.475
 67860,  9.899,  7.180,  8.320,  4.985,  0.476
 67920, 10.118,  7.305,  8.395,  5.194,  0.531
 67980, 10.403,  7.636,  7.807,  5.239,  0.576
 68040,  9.899,  7.739,  9.203,  5.401,  0.514
 68100, 10.438,  7.451,  7.525,  5.272,  0.507
 68160,  9.888,  7.967,  8.407,  5.250,  0.567
 68220, 10.277,  7.585,  7.591,  5.316,  0.456
 68280,  8.934,  7.000,  7.524,  4.838,  0.441
 68340,  7.801,  6.282,  7.090,  4.652,  0.475
 68400,  6.218,  5.721,  6.166,  3.950,  0.364
 68460,  5.451,  4.590,  5.739,  3.526,  0.181
 68520,  5.389,  5.116,  5.681,  3.582,  0.318
 68580,  5.799,  5.498,  5.794,  3.684,  0.313
 68640,  6.118,  6.530,  7.090,  4.321,  0.354
 68700,  6.652,  7.032,  7.693,  4.498,  0.439
 68760,  7.025,  7.873,  8.238,  4.867,  0.549
 68820,  7.418,  8.476,  7.700,  5.189,  0.403
 68880,  8.435, 11.183,  8.402,  5.550,  0.490
 68940,  9.248, 12.692,  8.736,  5.963,  0.589
 69000,  9.584, 13.539,  9.618,  6.308,  0.474
 69060,  9.549, 13.145, 10.296,  6.407,  0.587
 69120,  9.670, 13.490, 11.450,  6.624,  0.632
 69180, 10.251, 14.396, 12.697,  7.006,  0.676
 69240, 10.385, 14.597, 14.515,  7.381,  0.702
 69300, 10.334, 14.726, 17.215,  7.468,  0.759
 69360, 10.032, 13.792, 20.297,  7.564,  0.858
 69420,  9.359, 12.808, 20.804,  7.296,  0.976
 69480,  9.305, 13.187, 18.175,  6.879,  0.759
 69540,  9.056, 12.938, 16.013,  6.639,  0.767
 69600,  8.792, 12.960, 15.269,  6.170,  0.873
 69660, -9999.000, -9999.000, -9999.000, -9999.000, -9999.000
 69720,  8.463, 11.911, 10.286,  5.874,  0.716
 69780,  8.308, 10.047, 10.276,  5.476,  0.659
 69840,  6.277,  6.874,  8.494,  4.426,  0.513
 69900,  5.374,  6.181,  7.829,  3.964,  0.333
 69960,  4.561,  5.453,  6.735,  3.455,  0.373
 70020,  4.033,  4.745,  6.243,  3.025,  0.251
 70080,  3.378,  3.846,  5.947,  2.549,  0.176
 70140,  3.076,  3.625,  4.580,  2.346,  0.180
 70200,  2.690,  3.619,  4.062,  2.171, -0.021
 70260,  2.877,  3.366,  3.753,  2.047,  0.194
 70320,  2.746,  3.855,  4.004,  2.133,  0.187
 70380,  2.657,  3.967,  3.080,  1.945,  0.270
 70440,  2.660,  3.998,  2.661,  1.995,  0.260
 70500,  2.782,  3.957,  3.376,  1.929,  0.320
 70560,  2.519,  4.043,  3.156,  1.775,  0.336
 70620,  2.437,  3.887,  2.512,  1.747,  0.187
 70680,  2.457,  3.887,  2.324,  1.724,  0.213
 70740,  2.707,  4.214,  2.903,  1.888,  0.355
 70800,  2.958,  3.710,  3.155,  1.876,  0.273
 70860,  2.810,  4.254,  3.436,  1.911,  0.227
 70920,  2.886,  4.478,  3.279,  1.924,  0.301
 70980,  3.616,  4.414,  4.125,  2.317,  0.433
 71040,  3.802,  4.510,  3.598,  2.431,  0.424
 71100,  3.639,  4.844,  4.686,  2.522,  0.433
 71160,  3.996,  5.461,  5.756,  2.694,  0.673
 71220,  4.870,  6.133,  7.014,  3.076,  0.836
 71280,  5.037,  6.325,  8.116,  3.423,  0.741
 71340,  5.450,  6.907,  8.803,  3.632,  0.789
 71400,  5.609,  7.497,  9.222,  3.901,  0.802
 71460,  5.764,  6.987, 10.123,  3.845,  0.788
 71520, -9999.000, -9999.000, -9999.000, -9999.000, -9999.000
 71580,  6.778,  8.471, 12.284,  4.427,  1.012
 71640,  7.253,  8.645, 13.859,  4.822,  1.020
 71700,  7.510,  8.875, 13.176,  5.179,  1.091
 71760,  7.620,  8.881, 13.938,  5.385,  1.153
 71820,  7.547,  9.408, 14.470,  5.140,  1.119
 71880,  7.509,  9.132, 13.945,  5.265,  1.080
 71940,  6.950,  9.194, 14.512,  4.993,  1.020
 72000,  6.826,  8.696, 14.056,  4.809,  0.930
 72060,  6.411,  8.926, 13.860,  4.646,  0.813
 72120,  6.522,  9.304, 13.452,  4.868,  0.813
 72180,  6.442,  9.366, 13.803,  4.769,  0.883
 72240,  6.508,  9.608, 13.791,  4.833,  0.812
 72300,  6.391,  9.403, 12.661,  4.705,  0.698
 72360,  7.490,  9.996, 13.999,  5.265,  0.796
 72420,  6.595, 10.128, 13.381,  4.736,  0.727
 72480,  7.276, 10.432, 14.539,  5.053,  0.745
 72540,  7.404, 11.087, 14.473,  5.209,  0.832
 72600,  7.320, 11.496, 14.042,  5.043,  0.745
 72660,  7.312, 12.212, 15.431,  4.974,  0.859
 72720,  7.052, 12.939, 15.889,  5.076,  0.919
 72780,  6.984, 13.147, 15.466,  5.016,  0.851
 72840,  6.791, 13.819, 16.017,  4.954,  0.795
 72900,  7.086, 13.855, 16.704,  5.124,  0.848
 72960,  6.460, 14.769, 15.977,  4.847,  0.898
 73020,  6.217, 14.393, 15.455,  4.668,  0.833
 73080,  6.433, 15.469, 15.313,  4.781,  0.832
 73140,  6.765, 15.850, 15.554,  5.062,  0.838
 73200,  6.495, 16.667, 15.738,  4.786,  0.864
 73260,  6.975, 17.443, 16.131,  5.141,  0.811
 73320,  7.037, 18.740, 15.919,  5.134,  0.870
 73380, -9999.000, -9999.000, -9999.000, -9999.000, -9999.000
 73440,  6.797, 19.641, 14.564,  4.976,  0.864
 73500,  7.148, 20.789, 16.167,  5.293,  0.920
 73560,  6.944, 24.989, 15.882,  4.999,  0.869
 73620,  7.685, 26.178, 16.307,  5.398,  0.904
 73680,  8.234, 29.504, 19.834,  5.616,  1.086
 73740,  8.355, 32.447, 19.824,  5.471,  1.164
 73800,  7.176, 28.756, 17.066,  4.857,  0.933
 73860,  7.356, 28.212, 16.857,  4.788,  0.805
 73920,  6.858, 26.435, 15.884,  4.418,  0.728
 73980,  6.776, 26.905, 15.685,  4.468,  0.712
 74040,  7.241, 27.469, 15.070,  4.798,  0.724
 74100,  7.463, 29.306, 17.882,  4.925,  0.744
 74160,  7.868, 31.384, 21.070,  5.375,  0.926
 74220,  7.673, 31.214, 20.459,  4.986,  0.795
 74280,  8.002, 30.908, 20.462,  5.116,  0.700
 74340,  8.095, 31.833, 21.931,  5.303,  0.811
 74400,  8.302, 32.526, 23.179,  5.230,  0.820
 74460,  7.903, 32.599, 21.145,  4.665,  0.818
 74520,  8.196, 33.253, 21.064,  4.918,  0.724
 74580,  8.029, 34.281, 23.863,  5.044,  0.641
 74640,  8.107, 35.185, 20.948,  4.631,  0.592
 74700,  8.775, 36.959, 23.575,  5.459,  0.641
 74760,  8.513, 36.668, 24.589,  5.183,  0.679
 74820,  8.333, 36.793, 23.273,  4.924,  0.706
 74880,  8.643, 36.693, 22.779,  4.809,  0.697
 74940,  8.190, 34.042, 22.132,  4.821,  0.697
 75000,  8.440, 32.613, 21.430,  4.804,  0.656
 75060,  8.507, 33.561, 21.390,  4.864,  0.617
 75120,  8.472, 33.510, 21.056,  4.862,  0.639
 75180,  9.252, 35.486, 24.642,  5.454,  0.742
 75240,  7.874, 32.498, 19.956,  4.657,  0.494
 75300,  8.078, 30.954, 20.380,  4.594,  0.573
 75360,  8.778, 31.551, 22.404,  5.143,  0.544
 75420,  8.223, 30.639, 21.278,  4.790,  0.540
 75480,  8.351, 30.802, 20.620,  4.926,  0.591
 75540,  8.599, 30.878, 21.841,  5.050,  0.591
 75600,  8.480, 29.915, 21.534,  4.774,  0.582
 75660,  8.509, 31.588, 22.834,  4.934,  0.565
 75720,  8.560, 31.796, 24.579,  5.116,  0.622
 75780,  8.449, 32.261, 22.910,  4.827,  0.571
 75840,  9.080, 32.648, 25.984,  5.443,  0.638
 75900,  8.323, 31.470, 22.989,  4.809,  0.576
 75960,  8.844, 31.310, 22.168,  4.942,  0.502
 76020,  9.282, 32.988, 25.925,  5.290,  0.552
 76080,  8.851, 33.070, 26.051,  5.050,  0.555
 76140,  9.403, 33.074, 26.060,  5.186,  0.611
 76200,  9.250, 34.083, 25.128,  4.959,  0.558
 76260,  9.602, 33.596, 25.759,  5.112,  0.583
 76320,  9.226, 32.703, 25.931,  5.231,  0.489
 76380,  9.347, 31.128, 23.885,  5.004,  0.511
 76440,  9.678, 32.823, 25.889,  5.222,  0.420
 76500,  9.885, 33.611, 27.114,  5.341,  0.513
 76560, 10.045, 33.045, 28.256,  5.311,  0.434
 76620, 10.157, 32.613, 28.387,  5.227,  0.449
 76680, 10.346, 32.624, 27.364,  5.420,  0.544
 76740, 10.321, 28.402, 27.213,  5.306,  0.455
 76800,  9.763, 23.494, 21.045,  4.921,  0.387
 76860, 10.332, 22.525, 24.639,  5.563,  0.381
 76920, 10.433, 26.275, 25.504,  5.532,  0.472
 76980,  9.952, 23.947, 23.121,  5.210,  0.354
 77040, -9999.000, -9999.000, -9999.000, -9999.000, -9999.000
 77100,  6.252, 13.332, 12.572,  3.593,  0.150
 77160,  7.963, 17.344, 16.025,  4.454,  0.188
 77220,  9.399, 19.779, 19.050,  4.982,  0.264
 77280,  9.453, 20.681, 19.058,  5.024,  0.333
 77340,  8.910, 18.744, 17.887,  4.777,  0.286
 77400,  9.291, 19.275, 18.298,  4.679,  0.300
 77460,  9.256, 17.559, 16.877,  4.737,  0.325
 77520,  8.283, 13.590, 16.056,  4.491,  0.145
 77580,  7.235, 11.462, 12.725,  4.073,  0.073
 77640,  6.056,  7.131, 10.266,  3.761,  0.098
 77700,  4.744,  4.865,  7.940,  3.106,  0.106
 77760,  4.268,  4.130,  8.079,  3.039, -0.041
 77820,  3.713,  2.885,  5.037,  2.703,  0.014
 77880,  4.565,  3.921,  6.386,  3.019,  0.053
 77940,  4.463,  4.338,  7.280,  2.977,  0.083
 78000,  4.106,  3.514,  5.868,  2.837,  0.077
 78060,  4.351,  3.808,  6.767,  2.742,  0.085
 78120,  4.517,  3.876,  6.588,  3.072,  0.079
 78180,  4.081,  3.442,  7.054,  2.781,  0.140
 78240,  3.254,  3.018,  6.835,  2.557,  0.135
 78300,  3.555,  3.463,  6.169,  2.598,  0.068
 78360,  5.614,  4.249,  7.368,  3.187,  0.117
 78420,  6.158,  4.661,  7.899,  3.588,  0.131
 78480,  6.389,  4.524,  7.629,  3.797,  0.144
 78540,  7.645,  5.829,  8.784,  4.085,  0.223
 78600,  7.665,  6.092, 11.007,  4.576,  0.227
 78660,  7.780,  6.121, 10.603,  4.374,  0.203
 78720,  7.822,  5.979, 10.869,  4.575,  0.300
 78780,  8.041,  6.501, 12.402,  4.456,  0.218
 78840,  8.501,  7.099, 11.329,  4.641,  0.260
 78900,  9.376,  5.611, 10.262,  3.471,  0.389
 78960,  7.949,  6.609, 10.811,  4.447,  0.185
 79020,  8.399,  7.537, 13.251,  4.875,  0.289
 79080,  8.193,  6.550, 13.897,  4.851, -0.006
 79140,  8.639,  7.150, 15.039,  5.094,  0.136
 79200,  8.750,  7.477, 14.185,  4.766,  0.253
 79260,  9.009,  7.525, 15.198,  4.890,  0.304
 79320,  8.835,  6.973, 13.754,  4.793,  0.264
 79380,  8.879,  7.173, 14.392,  5.061,  0.262
 79440,  8.654,  6.878, 14.305,  4.760,  0.180
 79500,  8.761,  6.817, 13.716,  4.944,  0.218
 79560,  8.619,  6.493, 13.990,  4.990,  0.194
 79620,  8.464,  6.390, 14.506,  4.893,  0.183
 79680,  7.718,  5.767, 13.720,  4.801,  0.220
 79740,  7.367,  5.345, 13.472,  4.529,  0.183
 79800,  7.579,  5.398, 13.023,  4.541,  0.144
 79860,  7.822,  5.805, 13.221,  4.770,  0.266
 79920,  7.288,  5.481, 13.289,  4.596,  0.237
 79980,  6.325,  4.172, 10.513,  3.990,  0.217
 80040,  6.233,  3.879, 10.202,  4.014,  0.142
 80100,  6.087,  3.822,  9.940,  3.858,  0.156
 80160,  5.755,  3.725,  9.875,  3.796,  0.145
 80220,  6.441,  4.298,  9.456,  3.857,  0.119
 80280,  6.997,  4.638,  9.269,  4.254,  0.172
 80340,  6.819,  4.526,  9.983,  4.178,  0.158
 80400,  6.318,  4.239,  9.378,  3.987,  0.155
 80460,  7.051,  4.797,  9.437,  3.977,  0.154
 80520,  6.828,  4.383,  8.671,  4.101,  0.112
 80580,  6.162,  4.110,  9.695,  4.133,  0.175
 80640,  6.092,  3.926, 10.265,  3.912,  0.145
 80700,  6.058,  3.956, 10.170,  3.904,  0.156
 80760, -9999.000, -9999.000, -9999.000, -9999.000, -9999.000
 80820,  5.283,  3.013,  7.729,  3.491,  0.137
 80880,  5.319,  2.709,  6.350,  3.413,  0.076
 80940,  5.095,  2.519,  7.221,  3.335,  0.091
 81000,  4.951,  2.466,  6.083,  3.352,  0.115
 81060,  5.108,  2.969,  6.973,  3.384,  0.090
 81120,  5.124,  2.745,  5.436,  3.418,  0.080
 81180,  5.357,  2.668,  6.038,  3.372,  0.083
 81240,  5.192,  2.874,  4.874,  3.234,  0.117
 81300,  5.008,  2.652,  6.066,  3.408,  0.118
 81360,  4.799,  2.739,  5.740,  3.303,  0.088
 81420,  4.379,  2.482,  6.029,  3.044,  0.100
 81480,  4.235,  1.847,  3.865,  2.730,  0.009
 81540,  4.784,  2.299,  5.788,  3.228,  0.036
 81600,  5.640,  3.013,  6.459,  3.605,  0.076
 81660,  5.920,  2.749,  6.161,  3.869,  0.091
 81720,  6.516,  3.294,  6.128,  4.087,  0.116
 81780,  6.642,  3.828,  6.731,  4.183,  0.135
 81840,  6.457,  3.596,  5.726,  4.014,  0.096
 81900,  6.386,  3.734,  5.691,  4.176,  0.117
 81960,  5.993,  3.018,  6.743,  3.545,  0.178
 82020, -9999.000, -9999.000, -9999.000, -9999.000, -9999.000
 82080, -9999.000, -9999.000, -9999.000, -9999.000, -9999.000
 82140, -9999.000, -9999.000, -9999.000, -9999.000, -9999.000
 82200, -9999.000, -9999.000, -9999.000, -9999.000, -9999.000
 82260, -9999.000, -9999.000, -9999.000, -9999.000, -9999.000
 82320, -9999.000, -9999.000, -9999.000, -9999.000, -9999.000
 82380, -9999.000, -9999.000, -9999.000, -9999.000, -9999.000
 82440, -9999.000, -9999.000, -9999.000, -9999.000, -9999.000
 82500, -9999.000, -9999.000, -9999.000, -9999.000, -9999.000
 82560, -9999.000, -9999.000, -9999.000, -9999.000, -9999.000
 82620, -9999.000, -9999.000, -9999.000, -9999.000, -9999.000
 82680, -9999.000, -9999.000, -9999.000, -9999.000, -9999.000
 82740, -9999.000, -9999.000, -9999.000, -9999.000, -9999.000
 82800, -9999.000, -9999.000, -9999.000, -9999.000, -9999.000
 82860, -9999.000, -9999.000, -9999.000, -9999.000, -9999.000
 82920, -9999.000, -9999.000, -9999.000, -9999.000, -9999.000
 82980, -9999.000, -9999.000, -9999.000, -9999.000, -9999.000
 83040, -9999.000, -9999.000, -9999.000, -9999.000, -9999.000
 83100, -9999.000, -9999.000, -9999.000, -9999.000, -9999.000
 83160, -9999.000, -9999.000, -9999.000, -9999.000, -9999.000
 83220, -9999.000, -9999.000, -9999.000, -9999.000, -9999.000
 83280, -9999.000, -9999.000, -9999.000, -9999.000, -9999.000
 83340, -9999.000, -9999.000, -9999.000, -9999.000, -9999.000
 83400, -9999.000, -9999.000, -9999.000, -9999.000, -9999.000
 83460, -9999.000, -9999.000, -9999.000, -9999.000, -9999.000
 83520, -9999.000, -9999.000, -9999.000, -9999.000, -9999.000
 83580, -9999.000, -9999.000, -9999.000, -9999.000, -9999.000
 83640, -9999.000, -9999.000, -9999.000, -9999.000, -9999.000
 83700, -9999.000, -9999.000, -9999.000, -9999.000, -9999.000
 83760, -9999.000, -9999.000, -9999.000, -9999.000, -9999.000
 83820, -9999.000, -9999.000, -9999.000, -9999.000, -9999.000
 83880, -9999.000, -9999.000, -9999.000, -9999.000, -9999.000
 83940, -9999.000, -9999.000, -9999.000, -9999.000, -9999.000
 84000, -9999.000, -9999.000, -9999.000, -9999.000, -9999.000
 84060, -9999.000, -9999.000, -9999.000, -9999.000, -9999.000
 84120, -9999.000, -9999.000, -9999.000, -9999.000, -9999.000
 84180, -9999.000, -9999.000, -9999.000, -9999.000, -9999.000
 84240, -9999.000, -9999.000, -9999.000, -9999.000, -9999.000
 84300, -9999.000, -9999.000, -9999.000, -9999.000, -9999.000
 84360, -9999.000, -9999.000, -9999.000, -9999.000, -9999.000
 84420, -9999.000, -9999.000, -9999.000, -9999.000, -9999.000
 84480, -9999.000, -9999.000, -9999.000, -9999.000, -9999.000
 84540, -9999.000, -9999.000, -9999.000, -9999.000, -9999.000
 84600, -9999.000, -9999.000, -9999.000, -9999.000, -9999.000
 84660, -9999.000, -9999.000, -9999.000, -9999.000, -9999.000
 84720, -9999.000, -9999.000, -9999.000, -9999.000, -9999.000
 84780, -9999.000, -9999.000, -9999.000, -9999.000, -9999.000
 84840, -9999.000, -9999.000, -9999.000, -9999.000, -9999.000
 84900, -9999.000, -9999.000, -9999.000, -9999.000, -9999.000
 84960, -9999.000, -9999.000, -9999.000, -9999.000, -9999.000
 85020, -9999.000, -9999.000, -9999.000, -9999.000, -9999.000
 85080, -9999.000, -9999.000, -9999.000, -9999.000, -9999.000
 85140, -9999.000, -9999.000, -9999.000, -9999.000, -9999.000
 85200, -9999.000, -9999.000, -9999.000, -9999.000, -9999.000
 85260, -9999.000, -9999.000, -9999.000, -9999.000, -9999.000
 85320, -9999.000, -9999.000, -9999.000, -9999.000, -9999.000
 85380, -9999.000, -9999.000, -9999.000, -9999.000, -9999.000
 85440, -9999.000, -9999.000, -9999.000, -9999.000, -9999.000
 85500, -9999.000, -9999.000, -9999.000, -9999.000, -9999.000
 85560,  7.440,  4.445,  5.867,  4.820,  0.116
 85620,  7.599,  4.577,  6.487,  4.718,  0.188
 85680,  7.609,  4.390,  6.828,  4.830,  0.182
 85740,  7.530,  4.626,  7.340,  4.880,  0.212
 85800,  7.540,  4.648,  7.305,  4.908,  0.155
 85860,  7.701,  5.333,  8.267,  4.780,  0.192
 85920,  7.731,  5.321,  8.656,  4.854,  0.178
 85980,  7.713,  5.230,  9.004,  4.819,  0.111
 86040,  7.883,  5.419,  7.996,  4.860,  0.181
 86100,  8.095,  5.514,  9.760,  5.077,  0.218
 86160,  7.854,  5.627,  9.300,  5.086,  0.166
 86220,  7.960,  5.219,  8.784,  4.986,  0.226
 86280,  8.042,  5.486,  8.766,  4.968,  0.145
 86340,  7.883,  5.373,  7.973,  5.003,  0.216
