37, 1001
Michael A Robinson, Chris Jernigan, Subi Thakali
NOAA ESRL Chemical Sciences Laboratory and CIRES, U. of Colorado
NOAA Iodide CIMS Instrument
USOS
1, 1
2024, 07, 25, 2024, 07, 26
1
starttime_UTC, seconds_past_midnight, seconds_of_day_since_00:00:00_UTC
5
1, 1, 1, 1, 1
-9999, -9999, -9999, -9999, -9999
C4H7NO5_NOAACIMS, pptv, Gas_C4H7NO5_InSitu_S_AVMR, 
ISOPN_NOAACIMS, pptv, Gas_ISOPN_InSitu_S_AVMR, 
C5H10O3_NOAACIMS, pptv, Gas_C5H10O3_InSitu_S_AVMR, 
C5H9NO5_NOAACIMS, pptv, Gas_C5H9NO5_InSitu_S_AVMR, 
C10H17NO4_NOAACIMS, pptv, Gas_C10H17NO4_InSitu_S_AVMR, 
0
18
PI_CONTACT_INFO: 325 Broadway, R/CSD 7, Boulder, Colorado 80305; michael.a.robinson@noaa.gov; chris.jernigan@noaa.gov;
PLATFORM: NOAA CSL Mobile Lab
LOCATION: SLC, Utah
ASSOCIATED_DATA: 1Hz data also available on request.
INSTRUMENT_INFO: NOAA I- ToF CIMS
DATA_INFO: All data in parts per trillion by volume (pptv). 1 Hz data is available upon request.
UNCERTAINTY: TBD
ULOD_FLAG: -7777
ULOD_VALUE: N/A
LLOD_FLAG: -8888
LLOD_VALUE: N/A
DM_CONTACT_INFO: Nathan Howard; nathan.h.howard@noaa.gov
PROJECT_INFO: USOS, summer 2024. https://csl.noaa.gov/groups/csl7/measurements/2024usos/
STIPULATIONS_ON_USE: Users are strongly encouraged to contact the PI for proper data usage.
OTHER_COMMENTS: 
REVISION: RA
RA: Preliminary Data; For in-field use only
starttime_UTC, C4H7NO5_NOAACIMS, ISOPN_NOAACIMS, C5H10O3_NOAACIMS, C5H9NO5_NOAACIMS, C10H17NO4_NOAACIMS
     0, 12.443, 17.698, 205.744,  7.167,  0.263
    60, 12.092, 17.755, 204.416,  7.476,  0.233
   120, 11.872, 17.462, 198.310,  7.218,  0.270
   180, 11.909, 18.234, 204.764,  7.251,  0.256
   240, 11.895, 16.843, 205.129,  7.145,  0.290
   300, 12.037, 18.474, 207.837,  7.353,  0.301
   360, -9999.000, -9999.000, -9999.000, -9999.000, -9999.000
   420, 11.704, 17.072, 175.562,  7.384,  0.203
   480, 12.078, 18.120, 193.054,  7.493,  0.282
   540, 12.005, 17.526, 190.402,  7.588,  0.194
   600, 12.206, 17.818, 197.899,  7.514,  0.193
   660, 12.295, 18.123, 196.264,  7.535,  0.180
   720, 12.411, 18.689, 208.260,  7.430,  0.085
   780, 13.884, 23.555, 267.904,  8.478,  0.343
   840, 13.996, 24.525, 292.612,  8.863,  0.383
   900, 13.583, 23.561, 295.169,  8.674,  0.358
   960, 13.328, 23.650, 296.360,  8.490,  0.370
  1020, 13.272, 24.505, 305.891,  8.605,  0.342
  1080, 13.169, 24.021, 309.352,  8.204,  0.388
  1140, 12.749, 23.282, 302.181,  8.158,  0.380
  1200, 13.055, 24.027, 307.598,  8.181,  0.378
  1260, 12.883, 23.984, 317.711,  8.314,  0.337
  1320, 12.672, 23.950, 315.147,  8.358,  0.330
  1380, 12.679, 23.656, 309.423,  7.856,  0.221
  1440, 12.593, 23.475, 307.332,  7.872,  0.287
  1500, 12.549, 22.679, 297.335,  8.203,  0.285
  1560, 12.577, 22.386, 300.600,  8.171,  0.216
  1620, 12.515, 23.748, 299.280,  8.296,  0.364
  1680, 12.583, 23.546, 291.767,  8.009,  0.271
  1740, 12.766, 23.274, 290.823,  7.851,  0.290
  1800, 12.840, 24.068, 290.435,  8.216,  0.296
  1860, 12.812, 23.004, 282.563,  8.269,  0.240
  1920, 12.745, 23.157, 288.997,  8.212,  0.226
  1980, 12.793, 23.242, 286.424,  8.177,  0.310
  2040, 12.733, 23.597, 280.811,  8.055,  0.365
  2100, 12.738, 24.066, 285.720,  8.100,  0.335
  2160, 12.483, 22.858, 286.192,  8.027,  0.309
  2220, -9999.000, -9999.000, -9999.000, -9999.000, -9999.000
  2280, 12.382, 21.966, 234.908,  8.210,  0.198
  2340, 12.569, 23.159, 255.484,  8.517,  0.304
  2400, 12.712, 22.836, 268.262,  8.071,  0.304
  2460, 13.087, 23.070, 277.730,  8.457,  0.246
  2520, 12.805, 22.777, 285.153,  8.357,  0.207
  2580, 12.522, 22.755, 276.968,  8.423,  0.286
  2640, 12.704, 22.894, 286.045,  8.104,  0.267
  2700, 12.602, 23.205, 278.594,  8.269,  0.313
  2760, 13.029, 24.865, 302.949,  8.316,  0.354
  2820, 12.791, 25.506, 295.844,  8.571,  0.391
  2880, 12.829, 24.223, 290.133,  8.475,  0.440
  2940, 12.978, 24.175, 291.220,  8.685,  0.498
  3000, 12.899, 24.998, 296.000,  8.716,  0.406
  3060, 13.147, 25.848, 300.214,  8.649,  0.488
  3120, 13.230, 25.820, 310.728,  8.764,  0.382
  3180, 13.365, 25.907, 314.892,  8.832,  0.398
  3240, 13.458, 25.825, 316.881,  8.795,  0.268
  3300, 13.379, 25.328, 306.320,  8.465,  0.480
  3360, 13.047, 25.138, 302.712,  8.761,  0.481
  3420, 13.195, 26.289, 305.382,  8.621,  0.547
  3480, 12.975, 25.772, 309.163,  8.653,  0.571
  3540, 12.925, 25.957, 308.743,  8.626,  0.488
  3600, 13.026, 25.952, 318.544,  8.794,  0.503
  3660, 12.994, 27.173, 319.539,  8.883,  0.500
  3720, 12.891, 26.351, 317.324,  9.040,  0.548
  3780, 12.865, 26.331, 312.021,  9.017,  0.613
  3840, 12.806, 27.011, 321.664,  8.937,  0.567
  3900, 12.850, 27.979, 320.826,  9.114,  0.540
  3960, 13.023, 28.206, 329.934,  9.190,  0.650
  4020, 12.988, 29.004, 334.514,  9.437,  0.641
  4080, 12.512, 27.891, 288.046,  8.927,  0.700
  4140, 12.818, 29.354, 301.267,  9.540,  0.661
  4200, 12.668, 29.577, 321.945,  9.346,  0.729
  4260, 12.616, 29.350, 332.538,  9.296,  0.656
  4320, 12.567, 30.260, 342.470,  9.033,  0.713
  4380, 12.534, 30.423, 347.861,  9.264,  0.752
  4440, 12.502, 30.606, 358.108,  9.051,  0.712
  4500, 12.150, 30.094, 361.647,  9.117,  0.718
  4560, 12.189, 30.646, 377.350,  9.457,  0.766
  4620, 12.116, 29.466, 360.719,  8.688,  0.555
  4680, 11.907, 29.769, 378.781,  8.969,  0.702
  4740, 12.006, 29.743, 376.889,  9.036,  0.606
  4800, 11.616, 29.519, 385.400,  9.044,  0.750
  4860, 11.623, 28.876, 385.608,  8.900,  0.679
  4920, 11.495, 29.103, 381.489,  8.609,  0.696
  4980, 11.312, 29.395, 388.674,  8.810,  0.699
  5040, 11.554, 30.232, 389.157,  8.670,  0.536
  5100, 11.609, 31.200, 393.801,  8.736,  0.685
  5160, 11.359, 30.280, 390.666,  8.816,  0.737
  5220, 11.212, 31.098, 384.840,  8.745,  0.760
  5280, 11.244, 31.800, 388.727,  9.179,  0.804
  5340, 11.164, 32.328, 380.836,  8.759,  0.794
  5400, 10.254, 31.382, 368.346,  9.131,  0.859
  5460, 10.133, 30.583, 342.518,  8.781,  0.775
  5520,  9.881, 30.901, 334.910,  8.733,  0.823
  5580,  9.561, 32.420, 315.274,  8.503,  0.805
  5640,  8.599, 29.484, 289.425,  8.765,  0.656
  5700,  8.654, 31.649, 280.642,  8.689,  0.793
  5760,  8.528, 29.731, 266.466,  8.493,  0.618
  5820,  8.621, 30.661, 260.355,  8.711,  0.814
  5880, -9999.000, -9999.000, -9999.000, -9999.000, -9999.000
  5940,  7.730, 28.998, 199.620,  8.472,  0.771
  6000,  7.815, 29.586, 210.979,  8.722,  0.740
  6060,  8.114, 30.856, 220.697,  8.871,  0.701
  6120,  8.090, 31.495, 224.362,  8.775,  0.689
  6180,  8.064, 29.963, 224.195,  8.865,  0.767
  6240,  7.760, 30.395, 227.597,  9.098,  0.846
  6300,  7.847, 30.359, 221.875,  8.977,  0.789
  6360,  7.779, 31.837, 220.905,  8.887,  0.766
  6420,  7.557, 31.809, 225.845,  8.698,  0.861
  6480,  7.497, 32.521, 226.166,  8.614,  0.886
  6540,  7.226, 30.491, 223.089,  8.813,  0.871
  6600,  7.338, 31.005, 223.334,  8.942,  0.865
  6660,  7.315, 30.745, 221.678,  9.144,  0.760
  6720,  7.374, 31.061, 222.251,  8.964,  0.943
  6780,  7.444, 33.116, 226.850,  8.961,  1.074
  6840,  7.254, 32.240, 232.432,  9.541,  1.157
  6900,  7.270, 31.977, 223.424,  9.146,  0.975
  6960,  7.187, 30.227, 219.628,  9.000,  0.772
  7020,  7.195, 31.858, 227.124,  9.600,  0.761
  7080,  7.172, 33.158, 230.511,  9.417,  0.772
  7140,  7.314, 34.255, 240.221,  9.826,  0.741
  7200,  7.243, 34.663, 239.743, 10.068,  0.686
  7260,  7.287, 35.456, 235.932,  9.994,  0.777
  7320,  7.499, 36.581, 236.597, 10.058,  0.922
  7380,  7.394, 36.833, 237.631, 10.053,  0.946
  7440,  7.482, 38.814, 247.739, 10.497,  0.937
  7500,  7.491, 40.413, 258.159, 10.790,  0.968
  7560,  7.493, 41.663, 271.153, 11.193,  1.014
  7620,  7.549, 41.546, 271.897, 11.287,  0.981
  7680,  7.510, 44.430, 284.116, 11.555,  0.937
  7740,  7.605, 48.180, 282.282, 11.672,  1.222
  7800,  7.411, 43.665, 269.178, 12.093,  0.926
  7860,  7.660, 44.710, 284.065, 12.669,  1.069
  7920,  7.697, 46.053, 289.715, 12.331,  1.161
  7980,  7.654, 48.748, 296.391, 12.947,  1.275
  8040,  7.782, 49.618, 301.521, 12.971,  1.475
  8100,  7.689, 50.461, 303.760, 12.998,  1.508
  8160,  7.786, 49.647, 305.849, 13.489,  1.485
  8220,  7.699, 49.162, 308.624, 13.993,  1.503
  8280,  7.696, 50.012, 308.472, 14.087,  1.564
  8340,  7.680, 50.701, 304.053, 13.751,  1.583
  8400,  7.632, 50.137, 320.234, 14.994,  1.592
  8460,  7.710, 49.448, 303.287, 14.315,  1.569
  8520,  7.716, 49.214, 301.091, 14.464,  1.492
  8580,  7.845, 50.776, 304.289, 14.700,  1.359
  8640,  7.739, 49.469, 300.794, 14.673,  1.207
  8700,  7.835, 51.335, 294.748, 14.696,  1.216
  8760,  7.822, 51.855, 302.380, 15.643,  1.411
  8820,  7.864, 50.821, 311.948, 16.091,  1.566
  8880,  7.858, 52.082, 313.929, 16.135,  1.710
  8940,  7.930, 52.876, 306.574, 16.007,  1.538
  9000,  7.721, 51.013, 304.054, 16.120,  1.538
  9060,  7.613, 49.535, 291.629, 15.344,  1.399
  9120,  7.763, 48.735, 299.679, 15.589,  1.357
  9180,  7.778, 48.594, 299.338, 15.164,  1.346
  9240,  7.785, 46.306, 302.783, 14.925,  1.328
  9300,  7.901, 43.761, 307.140, 13.999,  1.415
  9360,  7.803, 42.806, 306.489, 13.712,  1.327
  9420,  7.983, 41.407, 309.293, 13.496,  1.330
  9480,  8.173, 40.262, 314.907, 12.857,  1.284
  9540,  8.163, 39.644, 314.371, 12.554,  1.114
  9600, -9999.000, -9999.000, -9999.000, -9999.000, -9999.000
  9660,  7.761, 37.771, 260.033, 11.530,  1.017
  9720,  8.010, 37.973, 277.927, 11.935,  1.235
  9780,  8.037, 37.562, 290.296, 11.963,  1.264
  9840,  8.057, 37.411, 293.733, 11.583,  1.179
  9900,  8.093, 37.327, 295.160, 11.829,  1.268
  9960,  8.135, 37.816, 296.032, 12.145,  1.049
 10020,  8.145, 36.843, 301.437, 12.394,  1.275
 10080,  8.105, 36.338, 290.795, 12.108,  1.204
 10140,  8.116, 36.859, 295.164, 12.506,  1.243
 10200,  8.081, 36.309, 296.994, 12.811,  1.180
 10260,  8.258, 36.481, 305.359, 13.173,  1.210
 10320,  8.288, 37.258, 297.089, 12.799,  1.210
 10380,  8.403, 37.989, 312.939, 13.047,  1.161
 10440,  8.490, 37.000, 306.624, 13.093,  1.152
 10500,  8.571, 37.103, 315.433, 13.544,  1.097
 10560,  8.597, 38.242, 318.314, 13.361,  1.228
 10620,  8.814, 37.969, 320.930, 13.394,  1.322
 10680,  8.768, 37.582, 322.237, 13.120,  1.242
 10740,  9.043, 36.873, 333.415, 13.056,  1.127
 10800,  8.961, 36.362, 326.346, 13.007,  1.144
 10860,  8.967, 37.895, 332.007, 12.641,  1.147
 10920,  9.030, 36.824, 327.690, 12.631,  1.165
 10980,  9.062, 36.356, 323.678, 12.809,  1.085
 11040,  9.044, 37.639, 324.415, 12.704,  1.195
 11100,  9.090, 37.395, 329.679, 12.596,  1.179
 11160,  9.242, 36.744, 333.298, 12.891,  1.064
 11220,  9.236, 38.076, 330.288, 12.470,  1.154
 11280,  9.317, 37.856, 329.478, 12.469,  1.013
 11340,  9.425, 37.021, 333.510, 12.189,  0.958
 11400,  9.232, 37.839, 337.205, 12.670,  0.952
 11460,  9.065, 36.518, 296.116, 11.004,  1.106
 11520,  9.413, 34.782, 304.672, 12.108,  0.983
 11580,  9.254, 34.859, 309.211, 11.944,  0.931
 11640,  9.569, 35.585, 313.817, 12.196,  1.011
 11700,  9.506, 36.421, 324.684, 12.005,  1.134
 11760,  9.527, 35.265, 319.347, 11.942,  1.063
 11820,  9.451, 34.431, 312.639, 11.592,  0.961
 11880,  9.443, 35.878, 314.576, 11.644,  1.066
 11940,  9.495, 35.774, 315.039, 11.712,  0.947
 12000,  9.683, 35.154, 316.204, 11.973,  0.909
 12060,  9.737, 36.300, 318.781, 11.555,  0.832
 12120,  9.809, 36.115, 315.736, 11.260,  0.848
 12180,  9.432, 35.099, 311.272, 11.311,  0.937
 12240,  9.840, 34.656, 319.011, 11.403,  0.890
 12300,  9.740, 35.806, 317.723, 11.378,  1.001
 12360,  9.820, 34.541, 315.645, 11.498,  0.852
 12420,  9.742, 35.288, 325.344, 11.385,  0.908
 12480,  9.770, 36.164, 318.220, 11.040,  0.880
 12540,  9.773, 35.468, 316.541, 11.385,  0.976
 12600,  9.619, 35.660, 310.491, 12.595,  0.995
 12660,  9.522, 34.267, 311.025, 13.170,  1.178
 12720,  9.633, 34.077, 315.989, 13.916,  1.306
 12780,  9.411, 33.780, 308.936, 14.112,  1.170
 12840,  9.278, 32.603, 297.010, 13.456,  1.274
 12900,  8.775, 30.641, 285.097, 15.146,  1.326
 12960,  8.489, 30.135, 269.580, 14.010,  1.366
 13020,  8.610, 30.741, 270.340, 13.436,  1.269
 13080,  7.488, 26.087, 232.614, 12.316,  1.275
 13140,  7.765, 26.267, 229.256, 13.057,  1.314
 13200,  7.070, 23.397, 204.197, 13.341,  1.463
 13260,  7.687, 25.526, 204.923, 13.189,  1.394
 13320,  6.629, 18.868, 151.356, 12.431,  1.117
 13380,  6.479, 20.575, 154.521, 12.724,  1.241
 13440,  6.151, 19.085, 145.544, 12.674,  1.385
 13500,  6.223, 19.850, 150.299, 12.571,  1.460
 13560,  6.269, 19.797, 146.648, 12.382,  1.604
 13620,  6.436, 20.581, 148.922, 12.639,  1.652
 13680,  6.241, 19.557, 145.750, 11.949,  1.696
 13740,  5.913, 18.128, 136.607, 11.681,  1.825
 13800,  7.099, 22.458, 156.000, 11.968,  1.873
 13860,  7.299, 22.425, 168.265, 12.153,  1.580
 13920,  6.153, 18.727, 142.346, 10.493,  1.548
 13980,  6.722, 21.200, 143.374, 11.329,  1.626
 14040,  6.765, 20.748, 149.613, 11.380,  1.692
 14100,  7.210, 22.677, 165.924, 12.088,  1.507
 14160,  7.570, 23.482, 178.382, 12.233,  1.441
 14220,  7.591, 24.101, 181.270, 12.709,  1.563
 14280,  7.567, 22.769, 181.539, 12.805,  1.482
 14340,  7.290, 23.334, 186.242, 12.798,  1.459
 14400,  7.129, 22.518, 179.161, 12.901,  1.519
 14460,  7.177, 21.647, 178.731, 13.119,  1.621
 14520,  7.108, 21.422, 177.937, 13.020,  1.550
 14580,  7.111, 20.962, 169.254, 12.918,  1.644
 14640,  6.708, 19.807, 160.775, 12.725,  1.677
 14700,  6.824, 20.470, 164.202, 12.513,  1.743
 14760,  6.854, 20.564, 164.580, 12.841,  1.874
 14820,  6.899, 20.823, 164.689, 12.376,  2.104
 14880,  6.874, 20.429, 161.633, 12.484,  1.904
 14940,  6.827, 20.261, 160.315, 12.341,  2.087
 15000,  6.635, 19.604, 157.081, 12.973,  2.021
 15060,  6.403, 18.611, 151.542, 12.921,  1.843
 15120,  6.512, 18.277, 150.080, 13.250,  1.894
 15180,  6.214, 17.440, 135.362, 12.324,  1.886
 15240,  6.167, 17.580, 136.493, 12.508,  1.851
 15300,  6.327, 17.638, 133.647, 12.735,  1.900
 15360,  6.258, 17.074, 135.756, 12.555,  1.855
 15420,  6.453, 17.734, 135.110, 12.792,  1.820
 15480,  6.272, 17.688, 136.066, 12.525,  1.942
 15540,  6.254, 17.386, 134.074, 12.173,  1.801
 15600,  6.200, 16.819, 134.627, 12.220,  1.796
 15660,  6.037, 16.298, 127.160, 11.739,  1.723
 15720,  6.018, 16.123, 128.117, 11.784,  1.741
 15780,  5.751, 15.462, 119.922, 10.818,  1.625
 15840,  5.667, 14.820, 114.310, 11.052,  1.540
 15900,  5.525, 14.179, 112.532, 10.566,  1.796
 15960,  5.380, 13.578, 107.174, 10.968,  1.684
 16020,  5.386, 13.686, 104.334, 11.356,  1.510
 16080,  5.511, 13.789, 106.241, 11.439,  1.606
 16140,  5.552, 14.528, 107.495, 11.318,  1.487
 16200,  5.668, 14.502, 112.721, 11.575,  1.678
 16260,  5.914, 15.240, 114.571, 12.335,  1.702
 16320,  5.871, 15.206, 114.484, 11.740,  1.569
 16380,  5.757, 15.236, 114.789, 11.480,  1.586
 16440,  5.708, 14.536, 112.773, 11.581,  1.511
 16500,  5.836, 15.203, 117.882, 11.890,  1.658
 16560,  5.786, 14.642, 115.573, 11.819,  1.584
 16620,  5.761, 14.460, 117.468, 12.163,  1.639
 16680,  5.692, 14.430, 116.411, 12.122,  1.678
 16740,  5.746, 13.975, 114.145, 11.644,  1.561
 16800,  5.633, 13.969, 111.075, 11.959,  1.551
 16860,  5.698, 13.455, 110.379, 12.040,  1.537
 16920,  5.765, 14.168, 112.128, 12.474,  1.656
 16980, -9999.000, -9999.000, -9999.000, -9999.000, -9999.000
 17040,  5.770, 15.234, 98.896, 12.816,  1.598
 17100,  6.250, 15.496, 108.941, 14.110,  1.721
 17160,  6.224, 15.883, 114.345, 13.674,  1.699
 17220,  6.240, 15.438, 116.367, 13.714,  1.723
 17280,  6.199, 15.294, 118.628, 13.909,  1.887
 17340,  6.226, 15.039, 118.053, 14.187,  1.637
 17400,  6.180, 15.291, 119.457, 14.352,  1.688
 17460,  6.206, 15.496, 114.160, 13.771,  1.763
 17520,  6.148, 15.538, 117.665, 13.959,  1.766
 17580,  6.150, 14.766, 115.516, 14.248,  1.790
 17640,  6.037, 14.863, 112.275, 14.140,  1.681
 17700,  6.133, 15.555, 117.832, 14.120,  1.840
 17760,  6.127, 15.064, 116.842, 14.733,  1.816
 17820,  6.011, 14.954, 114.491, 14.108,  1.772
 17880,  5.905, 14.678, 114.157, 14.153,  1.800
 17940,  5.944, 14.566, 113.923, 13.832,  1.776
 18000,  5.873, 14.558, 111.441, 13.473,  1.815
 18060,  5.905, 14.218, 110.948, 13.467,  1.662
 18120,  5.837, 14.288, 106.372, 13.388,  1.686
 18180,  5.865, 14.290, 108.319, 13.124,  1.807
 18240,  5.738, 14.124, 108.773, 13.080,  1.704
 18300,  5.736, 13.357, 106.230, 13.432,  1.755
 18360,  5.629, 13.479, 104.923, 13.070,  1.738
 18420,  5.574, 13.421, 103.529, 13.226,  1.758
 18480,  5.740, 13.928, 104.788, 12.881,  1.692
 18540,  5.620, 13.356, 101.285, 13.154,  1.759
 18600,  5.610, 13.076, 99.184, 12.827,  1.817
 18660,  5.732, 13.361, 100.886, 12.631,  1.732
 18720,  5.631, 13.465, 99.474, 12.286,  1.721
 18780,  5.478, 13.006, 99.493, 12.143,  1.828
 18840, -9999.000, -9999.000, -9999.000, -9999.000, -9999.000
 18900,  5.290, 12.075, 89.146, 11.525,  1.497
 18960,  5.111, 11.730, 87.474, 11.624,  1.608
 19020,  5.160, 11.777, 87.772, 11.463,  1.546
 19080,  5.036, 11.554, 86.745, 11.623,  1.713
 19140,  4.897, 10.898, 84.595, 11.069,  1.581
 19200,  4.804, 10.882, 82.649, 11.415,  1.692
 19260,  4.843, 10.580, 84.734, 10.902,  1.599
 19320,  4.825, 10.778, 84.577, 10.886,  1.615
 19380,  4.811, 10.990, 86.133, 10.912,  1.692
 19440,  4.886, 10.564, 84.124, 11.066,  1.732
 19500,  4.749, 10.409, 84.090, 11.071,  1.779
 19560,  4.681, 10.015, 80.417, 10.562,  1.693
 19620,  4.688, 10.025, 78.345, 10.231,  1.506
 19680,  4.630, 10.156, 80.808, 10.591,  1.648
 19740,  4.557,  9.965, 80.872, 10.269,  1.664
 19800,  4.570,  9.569, 80.521, 10.394,  1.656
 19860,  4.499,  9.423, 79.991, 10.455,  1.713
 19920,  4.450,  9.410, 79.467, 10.300,  1.680
 19980,  4.426,  9.217, 75.757, 10.048,  1.622
 20040,  4.456,  9.135, 74.760, 10.056,  1.657
 20100,  4.460,  9.319, 76.750, 10.146,  1.708
 20160,  4.511,  8.486, 75.766, 10.014,  1.515
 20220,  4.470,  8.552, 79.177,  9.872,  1.689
 20280,  4.220,  8.457, 78.503,  9.653,  1.564
 20340,  4.121,  8.128, 73.416,  9.277,  1.429
 20400,  4.108,  7.845, 71.566,  9.320,  1.483
 20460,  4.016,  7.837, 70.866,  9.018,  1.484
 20520,  4.083,  7.249, 69.785,  9.147,  1.585
 20580,  4.048,  7.938, 70.444,  9.142,  1.668
 20640,  4.000,  7.950, 71.530,  9.151,  1.504
 20700, -9999.000, -9999.000, -9999.000, -9999.000, -9999.000
 20760,  3.861,  7.325, 63.171,  8.524,  1.509
 20820,  3.928,  6.953, 65.062,  8.742,  1.599
 20880,  3.975,  7.178, 67.350,  8.799,  1.722
 20940,  3.988,  7.466, 66.754,  8.780,  1.560
 21000,  3.940,  6.852, 65.522,  8.386,  1.763
 21060,  3.885,  6.910, 65.979,  8.442,  1.667
 21120,  3.809,  6.595, 66.573,  8.305,  1.689
 21180,  3.824,  6.610, 64.882,  8.437,  1.569
 21240,  3.896,  7.216, 66.665,  8.577,  1.663
 21300,  4.018,  7.108, 67.116,  8.328,  1.646
 21360,  3.905,  7.147, 69.249,  8.585,  1.736
 21420,  3.967,  7.111, 67.519,  8.547,  1.782
 21480,  3.995,  6.927, 67.187,  8.309,  1.832
 21540,  3.953,  7.249, 69.571,  8.379,  1.867
 21600,  3.981,  6.737, 68.764,  8.215,  1.726
 21660,  3.845,  6.800, 71.400,  8.116,  1.879
 21720,  3.904,  6.641, 71.388,  8.047,  1.829
 21780,  3.905,  6.917, 69.959,  8.195,  1.930
 21840,  3.838,  6.621, 68.859,  7.896,  1.992
 21900,  3.881,  6.604, 67.810,  7.856,  1.856
 21960,  3.811,  6.552, 66.070,  7.472,  1.665
 22020,  3.742,  7.017, 70.221,  7.412,  1.526
 22080,  3.807,  6.313, 69.535,  7.646,  1.591
 22140,  3.808,  6.334, 68.012,  7.399,  1.683
 22200,  3.886,  6.558, 69.272,  7.467,  1.552
 22260,  3.849,  6.700, 67.816,  7.406,  1.626
 22320,  3.799,  6.597, 66.029,  7.285,  1.562
 22380,  3.790,  6.750, 66.150,  7.351,  1.326
 22440,  3.771,  6.111, 65.581,  7.068,  1.266
 22500,  3.653,  6.738, 65.497,  7.161,  1.375
 22560,  3.629,  6.154, 58.672,  6.653,  1.329
 22620,  3.661,  6.305, 61.973,  6.783,  1.204
 22680,  3.688,  6.121, 61.928,  7.059,  1.145
 22740,  3.664,  6.294, 62.930,  6.973,  1.160
 22800,  3.682,  6.170, 61.241,  6.851,  1.293
 22860,  3.681,  6.202, 61.442,  6.819,  1.142
 22920,  3.657,  6.107, 62.137,  6.797,  1.142
 22980,  3.654,  6.329, 63.194,  6.831,  1.240
 23040,  3.644,  6.146, 59.797,  6.747,  1.095
 23100,  3.633,  6.139, 60.236,  6.905,  1.114
 23160,  3.674,  6.293, 59.021,  6.777,  1.096
 23220,  3.655,  6.256, 58.891,  6.997,  1.189
 23280,  3.684,  5.856, 57.012,  6.951,  1.048
 23340,  3.655,  6.289, 58.918,  6.850,  1.006
 23400,  3.597,  6.016, 58.664,  6.854,  1.146
 23460,  3.567,  6.122, 59.514,  6.999,  1.140
 23520,  3.617,  6.263, 58.972,  7.025,  0.956
 23580,  3.595,  6.381, 60.572,  7.049,  1.152
 23640,  3.647,  5.754, 59.393,  7.066,  1.135
 23700,  3.690,  6.132, 57.401,  7.543,  1.127
 23760,  3.713,  5.982, 56.631,  7.279,  1.004
 23820,  3.708,  6.296, 60.000,  7.450,  1.217
 23880,  3.687,  6.188, 59.256,  7.499,  1.124
 23940,  3.734,  6.393, 58.787,  7.675,  1.292
 24000,  3.720,  6.356, 59.269,  7.790,  1.363
 24060,  3.706,  6.383, 57.837,  8.039,  1.283
 24120,  3.771,  6.666, 59.817,  8.070,  1.203
 24180,  3.798,  6.335, 58.653,  8.006,  1.306
 24240,  3.808,  6.217, 59.621,  8.184,  1.160
 24300,  3.731,  6.134, 60.711,  8.077,  1.313
 24360, -9999.000, -9999.000, -9999.000, -9999.000, -9999.000
 24420,  3.675,  5.912, 48.777,  8.132,  1.111
 24480,  3.833,  5.907, 53.065,  8.253,  1.023
 24540,  3.776,  6.188, 55.400,  8.444,  1.168
 24600,  3.796,  6.136, 54.578,  8.193,  1.114
 24660,  3.772,  6.497, 58.412,  8.344,  1.065
 24720,  3.822,  6.108, 59.242,  8.403,  1.134
 24780,  3.774,  6.281, 58.723,  8.133,  1.187
 24840,  3.791,  6.181, 57.805,  8.279,  1.068
 24900,  3.811,  6.111, 58.988,  8.151,  1.188
 24960,  3.794,  6.089, 58.622,  8.290,  1.131
 25020,  3.803,  6.097, 58.826,  8.617,  1.225
 25080,  3.825,  6.195, 58.172,  8.207,  1.089
 25140,  3.749,  5.646, 59.350,  8.309,  1.109
 25200,  3.780,  5.940, 58.931,  8.333,  1.169
 25260,  3.657,  5.986, 58.940,  8.225,  1.099
 25320,  3.700,  5.921, 59.118,  8.345,  1.234
 25380,  3.583,  5.661, 56.938,  8.090,  1.078
 25440,  3.720,  5.731, 56.389,  8.120,  1.017
 25500,  3.648,  5.977, 58.290,  8.422,  1.090
 25560,  3.726,  5.832, 58.744,  8.466,  1.129
 25620,  3.662,  5.782, 58.645,  8.272,  1.181
 25680,  3.655,  5.590, 59.166,  8.272,  1.174
 25740,  3.754,  5.511, 57.950,  8.289,  1.218
 25800,  3.662,  5.579, 58.460,  8.269,  1.073
 25860,  3.749,  6.066, 58.256,  8.045,  1.129
 25920,  3.568,  5.407, 57.303,  8.129,  1.246
 25980,  3.611,  5.747, 58.755,  8.161,  1.173
 26040,  3.568,  5.507, 58.152,  7.994,  1.163
 26100,  3.557,  5.485, 58.765,  8.036,  1.160
 26160,  3.564,  5.474, 58.405,  7.720,  1.154
 26220, -9999.000, -9999.000, -9999.000, -9999.000, -9999.000
 26280,  3.510,  5.206, 53.538,  8.057,  1.038
 26340,  3.589,  5.376, 54.388,  7.992,  1.051
 26400,  3.550,  5.212, 53.743,  7.878,  1.035
 26460,  3.602,  5.229, 55.793,  8.006,  1.135
 26520,  3.592,  5.321, 56.005,  8.131,  1.200
 26580,  3.540,  5.037, 56.438,  8.088,  1.171
 26640,  3.608,  5.369, 57.100,  8.205,  1.228
 26700,  3.519,  4.862, 55.549,  7.822,  1.078
 26760,  3.579,  5.288, 56.240,  7.796,  1.126
 26820,  3.517,  5.120, 54.938,  8.169,  1.082
 26880,  3.519,  4.714, 55.004,  8.049,  1.149
 26940,  3.528,  5.092, 57.085,  7.846,  0.928
 27000,  3.518,  4.928, 56.209,  7.912,  1.054
 27060,  3.531,  4.895, 56.236,  7.979,  0.957
 27120,  3.498,  4.713, 56.568,  7.931,  0.960
 27180,  3.470,  4.731, 55.690,  7.908,  0.972
 27240,  3.519,  4.948, 54.580,  7.816,  0.992
 27300,  3.461,  5.019, 55.806,  7.995,  0.942
 27360,  3.533,  5.005, 57.700,  7.807,  0.894
 27420,  3.428,  4.757, 55.474,  7.667,  0.962
 27480,  3.374,  4.615, 55.845,  7.399,  0.909
 27540,  3.421,  4.566, 54.855,  7.709,  0.928
 27600,  3.436,  4.602, 54.066,  7.531,  0.836
 27660,  3.314,  4.294, 54.182,  7.494,  0.788
 27720,  3.389,  4.380, 52.399,  7.473,  0.776
 27780,  3.353,  4.322, 54.691,  7.431,  0.897
 27840,  3.376,  4.439, 54.349,  7.406,  0.936
 27900,  3.364,  3.904, 53.918,  7.542,  0.812
 27960,  3.344,  4.274, 55.014,  7.558,  0.869
 28020,  3.353,  3.934, 53.258,  7.398,  0.891
 28080, -9999.000, -9999.000, -9999.000, -9999.000, -9999.000
 28140,  3.256,  3.992, 45.563,  7.048,  0.791
 28200,  3.280,  4.221, 48.158,  7.206,  0.781
 28260,  3.227,  3.995, 49.434,  7.204,  0.885
 28320,  3.267,  4.028, 50.558,  7.343,  0.940
 28380,  3.257,  3.974, 51.369,  7.417,  0.968
 28440,  3.262,  4.105, 52.030,  7.378,  0.854
 28500,  3.286,  4.252, 50.923,  7.289,  0.909
 28560,  3.235,  4.100, 51.535,  7.017,  0.854
 28620,  3.247,  4.131, 50.993,  7.176,  0.943
 28680,  3.212,  4.050, 50.004,  6.958,  0.921
 28740,  3.225,  3.986, 51.889,  7.018,  0.926
 28800,  3.235,  4.141, 51.112,  7.073,  1.013
 28860,  3.240,  4.266, 51.347,  7.073,  0.992
 28920,  3.274,  3.954, 51.604,  6.880,  0.935
 28980,  3.241,  3.830, 50.921,  7.031,  0.964
 29040,  3.196,  4.051, 50.777,  6.917,  0.947
 29100,  3.180,  3.922, 50.175,  7.012,  1.050
 29160,  3.217,  4.084, 49.250,  6.953,  1.019
 29220,  3.182,  4.107, 50.789,  7.000,  0.962
 29280,  3.216,  4.247, 50.667,  7.038,  1.051
 29340,  3.159,  4.237, 50.404,  6.917,  1.033
 29400,  3.206,  4.064, 51.089,  6.921,  1.033
 29460,  3.142,  3.847, 49.369,  7.068,  1.046
 29520,  3.096,  4.008, 48.770,  6.986,  1.053
 29580,  3.143,  3.905, 47.900,  6.640,  0.980
 29640,  3.083,  4.034, 46.174,  6.849,  0.967
 29700,  3.107,  4.047, 49.723,  6.869,  0.964
 29760,  3.082,  4.232, 48.770,  6.957,  0.998
 29820,  3.117,  4.229, 47.803,  6.949,  1.082
 29880,  3.066,  4.202, 47.467,  7.008,  1.123
 29940,  2.989,  3.635, 40.563,  6.682,  0.930
 30000,  3.045,  3.990, 43.144,  6.685,  0.999
 30060,  3.126,  3.869, 44.897,  6.927,  0.968
 30120,  3.124,  3.984, 44.690,  7.061,  1.053
 30180,  3.120,  4.054, 45.903,  6.821,  1.049
 30240,  3.058,  3.841, 46.249,  6.837,  1.055
 30300,  3.083,  4.055, 46.782,  6.752,  1.061
 30360,  3.050,  4.103, 47.994,  6.690,  1.072
 30420,  3.045,  3.868, 47.247,  7.021,  1.004
 30480,  3.082,  4.025, 46.270,  6.809,  1.080
 30540,  3.027,  3.648, 47.033,  6.659,  1.106
 30600,  2.990,  3.794, 45.066,  6.670,  1.098
 30660,  3.058,  3.464, 49.117,  6.834,  1.064
 30720,  3.096,  3.480, 49.320,  6.497,  1.266
 30780,  3.056,  3.399, 48.012,  6.881,  1.176
 30840,  2.971,  3.598, 48.604,  6.765,  1.194
 30900,  2.973,  3.460, 46.744,  6.672,  1.020
 30960,  2.902,  3.670, 46.306,  6.626,  1.190
 31020,  2.921,  3.229, 45.583,  6.618,  1.018
 31080,  2.938,  3.136, 45.166,  6.446,  0.928
 31140,  2.892,  3.078, 47.248,  6.296,  1.030
 31200,  2.784,  3.297, 46.166,  6.134,  1.113
 31260,  2.809,  3.087, 45.091,  6.298,  1.123
 31320,  2.761,  2.951, 45.308,  6.360,  1.159
 31380,  2.731,  2.735, 43.792,  6.139,  1.060
 31440,  2.720,  2.750, 43.764,  6.026,  1.033
 31500,  2.696,  2.722, 44.076,  5.863,  1.175
 31560,  2.680,  2.863, 43.447,  5.849,  1.194
 31620,  2.639,  2.829, 44.491,  5.951,  1.214
 31680,  2.665,  2.758, 44.721,  5.944,  1.178
 31740,  2.822,  1.945, 42.821,  5.781,  1.446
 31800,  2.445,  3.170, 35.972,  5.368,  1.019
 31860,  2.574,  2.487, 39.076,  5.868,  1.225
 31920,  2.677,  2.545, 42.292,  5.846,  1.504
 31980,  2.677,  2.808, 43.386,  5.935,  1.508
 32040,  2.720,  2.775, 43.349,  6.089,  1.471
 32100,  2.791,  2.895, 44.310,  6.107,  1.680
 32160,  2.737,  2.782, 44.372,  6.304,  1.598
 32220,  2.824,  3.145, 46.433,  6.387,  1.652
 32280,  2.879,  3.455, 45.702,  6.739,  1.685
 32340,  2.898,  3.252, 45.504,  6.870,  1.829
 32400,  2.929,  3.241, 45.463,  7.293,  1.959
 32460,  2.963,  3.438, 44.981,  7.186,  1.818
 32520,  2.968,  3.480, 45.449,  7.244,  1.822
 32580,  3.022,  3.520, 44.353,  7.268,  1.760
 32640,  2.997,  3.541, 43.848,  7.427,  1.857
 32700,  2.996,  3.523, 43.510,  7.179,  1.667
 32760,  2.991,  3.329, 42.089,  6.988,  1.600
 32820,  2.880,  3.390, 42.541,  7.074,  1.605
 32880,  2.700,  3.273, 41.863,  6.374,  1.650
 32940,  2.587,  3.020, 39.410,  6.134,  1.467
 33000,  2.491,  2.840, 37.159,  5.853,  1.431
 33060,  2.356,  2.841, 35.542,  5.433,  1.469
 33120,  2.149,  2.474, 31.593,  4.996,  1.274
 33180,  2.124,  2.052, 29.932,  4.698,  1.169
 33240,  2.121,  2.208, 29.132,  4.615,  1.247
 33300,  2.158,  2.034, 28.862,  4.406,  1.273
 33360,  2.153,  2.310, 31.649,  4.767,  1.305
 33420,  2.180,  1.870, 31.051,  4.993,  0.995
 33480,  2.198,  2.269, 32.139,  4.849,  1.245
 33540,  2.201,  2.369, 31.410,  4.905,  1.358
 33600,  2.251,  1.867, 30.064,  4.893,  1.526
 33660,  2.277,  2.411, 31.327,  5.359,  1.229
 33720,  2.447,  2.478, 32.596,  5.693,  1.721
 33780,  2.472,  2.708, 33.671,  5.816,  1.661
 33840,  2.453,  2.862, 33.829,  5.560,  1.591
 33900,  2.487,  2.781, 34.993,  5.709,  1.638
 33960,  2.495,  2.917, 37.552,  5.685,  1.637
 34020,  2.333,  2.426, 33.895,  5.515,  1.380
 34080,  2.216,  2.350, 31.738,  4.898,  1.126
 34140,  2.134,  2.033, 29.379,  4.664,  1.255
 34200,  2.129,  2.107, 29.437,  4.463,  1.172
 34260,  1.827,  1.858, 26.691,  3.989,  0.949
 34320,  1.879,  1.820, 25.158,  3.693,  1.007
 34380,  1.877,  1.749, 25.765,  3.784,  1.097
 34440,  1.865,  1.759, 23.908,  3.760,  0.970
 34500,  1.884,  1.652, 24.311,  3.570,  0.924
 34560,  1.928,  1.714, 22.951,  3.853,  0.976
 34620,  1.926,  1.501, 24.311,  3.874,  1.114
 34680,  1.924,  1.775, 25.744,  3.975,  1.148
 34740,  1.928,  1.711, 24.662,  3.815,  1.089
 34800,  1.853,  1.713, 24.816,  3.809,  1.106
 34860,  1.868,  1.675, 24.350,  3.510,  1.002
 34920,  1.826,  1.657, 23.075,  3.391,  1.040
 34980,  1.779,  1.512, 23.062,  3.305,  0.957
 35040,  1.792,  1.532, 23.232,  3.320,  0.917
 35100,  1.835,  1.642, 24.034,  3.337,  0.892
 35160,  1.840,  1.532, 22.508,  3.447,  1.002
 35220,  1.779,  1.596, 23.363,  3.378,  0.959
 35280,  1.810,  1.526, 24.660,  3.450,  0.779
 35340,  1.834,  1.540, 24.596,  3.316,  1.094
 35400,  1.784,  1.561, 25.352,  3.284,  0.984
 35460, -9999.000, -9999.000, -9999.000, -9999.000, -9999.000
 35520,  1.739,  1.642, 20.765,  3.216,  0.913
 35580,  1.796,  1.451, 22.313,  3.267,  0.811
 35640,  1.765,  1.298, 22.860,  3.094,  0.883
 35700,  1.722,  1.460, 23.165,  3.270,  0.914
 35760,  1.663,  1.344, 22.804,  2.992,  0.857
 35820,  1.711,  1.344, 23.199,  2.991,  0.882
 35880,  1.690,  1.144, 20.800,  3.052,  0.782
 35940,  1.641,  1.472, 22.114,  3.021,  0.927
 36000,  1.664,  1.389, 22.488,  2.878,  0.965
 36060,  1.633,  1.163, 21.623,  3.047,  0.846
 36120,  1.579,  1.011, 21.606,  3.046,  0.961
 36180,  1.587,  1.101, 21.635,  3.003,  0.895
 36240,  1.593,  1.008, 20.619,  2.927,  0.967
 36300,  1.621,  1.297, 21.182,  3.001,  1.040
 36360,  1.619,  1.193, 19.682,  2.988,  0.857
 36420,  1.603,  1.078, 20.940,  3.012,  0.934
 36480,  1.606,  1.236, 21.042,  3.063,  0.964
 36540,  1.543,  1.230, 20.890,  2.878,  0.956
 36600,  1.572,  1.153, 23.240,  2.949,  0.984
 36660,  1.574,  1.385, 23.255,  3.090,  1.017
 36720,  1.492,  1.287, 22.168,  2.942,  0.892
 36780,  1.529,  1.207, 22.061,  2.899,  0.953
 36840,  1.522,  1.032, 21.523,  3.008,  0.892
 36900,  1.548,  1.041, 22.242,  3.129,  0.922
 36960,  1.543,  1.003, 22.585,  3.039,  0.920
 37020,  1.524,  1.118, 22.203,  3.115,  0.859
 37080,  1.531,  1.057, 25.463,  3.246,  0.997
 37140,  1.556,  0.981, 24.475,  3.085,  1.003
 37200,  1.476,  1.186, 24.322,  3.277,  0.882
 37260,  1.554,  0.997, 24.571,  3.270,  0.898
 37320,  1.564,  0.989, 24.029,  2.646,  1.210
 37380,  1.498,  0.894, 23.517,  3.173,  0.792
 37440,  1.529,  0.746, 22.858,  3.145,  0.809
 37500,  1.528,  0.983, 24.779,  3.089,  0.937
 37560,  1.542,  1.318, 22.869,  3.043,  0.788
 37620,  1.565,  1.246, 23.311,  3.065,  0.802
 37680,  1.576,  0.994, 25.858,  3.170,  0.939
 37740,  1.599,  0.980, 24.677,  3.285,  0.896
 37800,  1.563,  1.012, 24.498,  3.109,  0.854
 37860,  1.538,  1.010, 25.166,  3.205,  0.914
 37920,  1.586,  1.354, 23.348,  3.138,  0.775
 37980,  1.568,  1.174, 24.994,  3.206,  0.871
 38040,  1.557,  0.962, 24.407,  3.233,  0.764
 38100,  1.564,  0.961, 23.326,  3.182,  0.897
 38160,  1.590,  0.848, 24.256,  3.142,  0.748
 38220,  1.547,  1.210, 25.437,  3.299,  0.841
 38280,  1.542,  1.278, 24.275,  3.271,  0.921
 38340,  1.573,  1.265, 24.345,  3.178,  0.832
 38400,  1.527,  1.187, 23.793,  3.137,  0.875
 38460,  1.577,  0.966, 24.103,  3.017,  0.774
 38520,  1.532,  1.036, 24.093,  3.135,  0.770
 38580,  1.535,  1.145, 23.798,  3.136,  0.748
 38640,  1.541,  1.212, 23.490,  3.318,  0.789
 38700,  1.565,  1.105, 23.786,  3.267,  0.794
 38760,  1.597,  1.425, 25.026,  3.129,  0.773
 38820,  1.596,  1.370, 25.934,  3.134,  0.806
 38880,  1.577,  1.098, 25.854,  3.310,  0.780
 38940,  1.567,  1.259, 26.275,  3.191,  0.912
 39000,  1.592,  1.294, 25.583,  3.480,  0.905
 39060,  1.631,  1.051, 25.495,  3.270,  0.793
 39120,  1.682,  1.382, 26.326,  3.192,  0.914
 39180,  1.456,  2.644, 24.891,  3.971,  0.795
 39240,  1.532,  1.331, 24.966,  3.219,  0.821
 39300,  1.571,  1.358, 25.888,  3.194,  0.771
 39360,  1.599,  1.196, 25.272,  3.473,  0.713
 39420,  1.577,  1.159, 25.482,  3.375,  0.829
 39480,  1.615,  0.924, 25.396,  3.297,  0.740
 39540,  1.583,  1.311, 25.131,  3.299,  0.758
 39600,  1.602,  1.379, 25.388,  3.275,  0.698
 39660,  1.565,  1.193, 25.803,  3.261,  0.767
 39720,  1.587,  0.986, 24.778,  3.058,  0.731
 39780,  1.631,  1.096, 24.103,  3.140,  0.788
 39840,  1.575,  1.154, 24.240,  3.241,  0.876
 39900,  1.612,  1.157, 24.136,  3.177,  0.884
 39960,  1.618,  1.002, 24.294,  3.306,  0.885
 40020,  1.628,  1.082, 25.367,  3.488,  0.935
 40080,  1.670,  1.064, 27.088,  3.392,  0.914
 40140,  1.652,  0.925, 27.154,  3.205,  0.870
 40200,  1.671,  0.935, 27.750,  3.425,  0.960
 40260,  1.651,  1.114, 27.568,  3.551,  0.897
 40320,  1.658,  0.900, 27.740,  3.380,  0.848
 40380,  1.630,  1.298, 28.029,  3.438,  0.916
 40440,  1.687,  0.888, 27.845,  3.352,  0.924
 40500,  1.694,  1.017, 29.242,  3.456,  0.970
 40560,  1.648,  1.059, 28.639,  3.439,  0.959
 40620,  1.681,  1.006, 27.673,  3.281,  0.950
 40680,  1.722,  1.133, 27.844,  3.355,  0.985
 40740,  1.781,  1.177, 30.554,  3.497,  0.904
 40800,  1.756,  0.933, 30.155,  3.530,  0.873
 40860,  1.718,  0.928, 30.043,  3.624,  0.805
 40920,  1.704,  1.079, 31.728,  3.469,  0.855
 40980,  1.553,  1.110, 30.185,  4.096,  0.897
 41040,  1.568,  0.882, 26.525,  3.394,  0.850
 41100,  1.689,  0.706, 25.018,  3.326,  0.824
 41160,  1.686,  0.841, 24.823,  3.428,  0.824
 41220,  1.644,  1.042, 24.345,  3.347,  0.803
 41280,  1.645,  0.999, 24.431,  3.224,  0.789
 41340,  1.638,  1.019, 24.860,  3.308,  0.872
 41400,  1.713,  1.157, 27.853,  3.555,  0.945
 41460,  1.721,  0.937, 28.081,  3.425,  1.024
 41520,  1.694,  1.001, 27.985,  3.523,  1.022
 41580,  1.632,  1.026, 27.090,  3.548,  0.991
 41640,  1.650,  0.901, 27.507,  3.521,  0.932
 41700,  1.670,  1.084, 30.351,  3.469,  1.015
 41760,  1.631,  1.321, 32.009,  3.539,  0.993
 41820,  1.685,  1.221, 31.394,  3.441,  1.145
 41880,  1.648,  1.145, 30.993,  3.543,  0.953
 41940,  1.615,  1.183, 30.065,  3.458,  0.911
 42000,  1.490,  1.067, 25.060,  3.092,  0.671
 42060,  1.442,  1.090, 23.987,  3.091,  0.726
 42120,  1.398,  0.912, 23.767,  3.044,  0.611
 42180,  1.419,  1.065, 23.549,  3.030,  0.623
 42240,  1.412,  0.919, 23.053,  2.821,  0.702
 42300,  1.432,  1.147, 23.838,  2.925,  0.740
 42360,  1.477,  1.330, 24.700,  3.117,  0.658
 42420,  1.464,  1.045, 25.168,  3.133,  0.712
 42480,  1.457,  1.068, 23.625,  3.159,  0.611
 42540,  1.461,  1.156, 24.735,  3.087,  0.745
 42600,  1.498,  1.397, 26.209,  3.180,  0.805
 42660,  1.471,  1.410, 25.973,  3.298,  0.790
 42720,  1.534,  1.309, 26.378,  3.268,  0.729
 42780,  1.490,  1.529, 27.437,  3.431,  0.748
 42840, -9999.000, -9999.000, -9999.000, -9999.000, -9999.000
 42900,  1.413,  1.216, 21.890,  3.214,  0.776
 42960,  1.473,  1.041, 21.978,  3.072,  0.680
 43020,  1.454,  1.385, 24.331,  3.229,  0.876
 43080,  1.465,  1.347, 25.189,  3.301,  0.801
 43140,  1.469,  1.218, 24.362,  3.230,  0.735
 43200,  1.472,  1.284, 25.477,  3.252,  0.800
 43260,  1.452,  1.285, 25.301,  3.231,  0.798
 43320,  1.406,  1.212, 23.290,  3.197,  0.729
 43380,  1.430,  1.215, 23.489,  3.060,  0.699
 43440,  1.361,  1.335, 24.568,  3.149,  0.688
 43500,  1.405,  1.549, 24.883,  3.129,  0.722
 43560,  1.410,  1.370, 24.706,  3.095,  0.745
 43620,  1.405,  1.172, 24.751,  3.252,  0.702
 43680,  1.381,  1.229, 23.514,  3.048,  0.583
 43740,  1.402,  0.968, 23.556,  3.266,  0.658
 43800,  1.392,  1.227, 23.490,  3.133,  0.639
 43860,  1.388,  1.391, 23.336,  3.090,  0.560
 43920,  1.382,  1.378, 23.819,  3.048,  0.689
 43980,  1.354,  1.159, 23.195,  3.161,  0.607
 44040,  1.398,  1.329, 23.799,  3.083,  0.606
 44100,  1.419,  1.359, 25.337,  3.240,  0.551
 44160,  1.371,  1.219, 24.417,  3.138,  0.546
 44220,  1.434,  1.350, 24.133,  3.176,  0.646
 44280,  1.414,  1.531, 25.536,  3.265,  0.597
 44340,  1.389,  1.355, 24.528,  3.194,  0.670
 44400,  1.404,  1.323, 24.253,  3.084,  0.722
 44460,  1.386,  1.185, 24.013,  3.151,  0.638
 44520,  1.395,  1.113, 23.499,  3.147,  0.651
 44580,  1.440,  0.965, 23.541,  3.021,  0.609
 44640,  1.430,  1.139, 25.366,  3.402,  0.655
 44700, -9999.000, -9999.000, -9999.000, -9999.000, -9999.000
 44760,  1.376,  1.355, 23.658,  3.239,  0.712
 44820,  1.441,  1.267, 24.636,  3.173,  0.576
 44880,  1.466,  1.353, 25.336,  3.267,  0.635
 44940,  1.470,  1.248, 25.457,  3.219,  0.616
 45000,  1.484,  1.344, 24.312,  3.210,  0.702
 45060,  1.463,  1.159, 24.751,  3.033,  0.623
 45120,  1.499,  1.346, 26.098,  3.227,  0.804
 45180,  1.529,  1.238, 26.380,  3.259,  0.728
 45240,  1.505,  1.292, 24.420,  3.183,  0.676
 45300,  1.525,  1.173, 25.838,  3.058,  0.683
 45360,  1.547,  1.134, 24.972,  3.182,  0.711
 45420,  1.473,  1.230, 23.147,  2.980,  0.563
 45480,  1.513,  1.120, 23.920,  3.260,  0.557
 45540,  1.493,  1.268, 23.636,  3.120,  0.689
 45600,  1.530,  1.074, 25.693,  3.115,  0.629
 45660,  1.514,  1.240, 23.519,  3.245,  0.717
 45720,  1.564,  1.131, 24.096,  3.195,  0.615
 45780,  1.535,  1.014, 24.050,  3.231,  0.597
 45840,  1.532,  1.082, 24.162,  3.248,  0.646
 45900,  1.513,  1.047, 24.188,  2.980,  0.617
 45960,  1.574,  1.157, 23.998,  3.161,  0.665
 46020,  1.532,  1.193, 23.444,  3.319,  0.587
 46080,  1.564,  1.247, 24.709,  3.163,  0.644
 46140,  1.600,  1.295, 24.210,  3.060,  0.616
 46200,  1.598,  1.171, 24.329,  3.214,  0.596
 46260,  1.597,  1.283, 24.643,  3.262,  0.588
 46320,  1.553,  1.186, 23.314,  3.087,  0.699
 46380,  1.569,  1.333, 23.713,  3.101,  0.630
 46440,  1.594,  1.020, 22.063,  3.121,  0.531
 46500,  1.619,  1.289, 23.598,  2.959,  0.594
 46560, -9999.000, -9999.000, -9999.000, -9999.000, -9999.000
 46620,  1.577,  1.262, 21.524,  3.252,  0.545
 46680,  1.628,  1.241, 22.243,  3.219,  0.612
 46740,  1.584,  1.133, 23.421,  3.101,  0.562
 46800,  1.620,  1.235, 23.572,  3.249,  0.543
 46860,  1.662,  1.196, 24.451,  3.370,  0.711
 46920,  1.792,  1.846, 26.822,  3.571,  1.167
 46980,  1.783,  1.693, 25.693,  3.477,  0.928
 47040,  1.641,  1.294, 23.989,  3.448,  0.859
 47100,  1.715,  1.168, 24.585,  3.352,  0.735
 47160,  1.627,  1.113, 24.303,  3.254,  0.685
 47220,  1.580,  1.302, 23.623,  3.282,  0.752
 47280,  1.572,  1.180, 23.045,  3.202,  0.680
 47340,  1.582,  1.028, 22.383,  3.061,  0.525
 47400,  1.589,  1.032, 23.120,  3.205,  0.615
 47460,  1.578,  1.102, 22.042,  3.239,  0.542
 47520,  1.576,  1.155, 21.720,  3.023,  0.527
 47580,  1.578,  0.793, 20.783,  3.153,  0.481
 47640,  1.567,  1.034, 21.613,  3.103,  0.438
 47700,  1.553,  0.925, 20.102,  3.051,  0.412
 47760,  1.534,  0.733, 18.209,  3.165,  0.479
 47820,  1.572,  0.851, 20.478,  3.204,  0.493
 47880,  1.558,  0.914, 19.977,  3.152,  0.475
 47940,  1.549,  0.766, 19.908,  3.174,  0.415
 48000,  1.538,  0.883, 21.124,  3.229,  0.469
 48060,  1.624,  1.013, 21.811,  3.148,  0.419
 48120,  1.597,  0.680, 20.149,  3.153,  0.327
 48180,  1.562,  0.662, 19.994,  3.236,  0.449
 48240,  1.550,  0.896, 20.668,  3.212,  0.423
 48300,  1.516,  0.705, 21.222,  3.170,  0.314
 48360,  1.575,  0.732, 21.467,  3.173,  0.396
 48420,  1.570,  0.439, 21.186,  3.379,  0.434
 48480,  1.543,  0.678, 20.398,  3.233,  0.467
 48540,  1.545,  0.645, 19.318,  3.290,  0.558
 48600,  1.537,  0.906, 22.336,  3.109,  0.696
 48660,  1.578,  0.805, 21.617,  3.243,  0.511
 48720,  1.566,  0.947, 18.853,  3.121,  0.429
 48780,  1.542,  0.925, 20.687,  3.175,  0.420
 48840,  1.623,  0.669, 20.509,  3.310,  0.453
 48900,  1.611,  0.724, 21.686,  3.228,  0.520
 48960,  1.575,  0.928, 20.406,  3.299,  0.404
 49020,  1.607,  0.858, 20.604,  3.317,  0.661
 49080,  1.617,  1.099, 21.101,  3.417,  0.646
 49140,  1.655,  0.965, 22.011,  3.380,  0.826
 49200,  1.607,  0.731, 19.729,  3.319,  0.735
 49260,  1.610,  0.906, 20.730,  3.288,  0.841
 49320,  1.609,  0.915, 19.633,  3.388,  0.690
 49380,  1.618,  1.141, 20.720,  3.357,  0.654
 49440,  1.694,  1.055, 23.758,  3.423,  0.588
 49500,  1.743,  1.146, 23.961,  3.630,  0.585
 49560,  1.701,  1.263, 22.838,  3.590,  0.543
 49620,  1.723,  1.223, 24.627,  3.630,  0.720
 49680,  1.758,  1.142, 24.274,  3.542,  0.678
 49740,  1.741,  1.092, 24.635,  3.732,  0.600
 49800,  1.792,  1.476, 25.716,  3.785,  0.761
 49860,  1.799,  1.448, 25.912,  3.747,  0.789
 49920,  1.826,  1.141, 26.277,  3.554,  0.789
 49980,  1.770,  1.542, 26.631,  3.724,  0.780
 50040,  1.818,  1.189, 26.456,  3.755,  0.687
 50100,  1.845,  1.289, 27.871,  3.748,  0.812
 50160,  1.812,  1.304, 28.105,  3.790,  0.706
 50220, -9999.000, -9999.000, -9999.000, -9999.000, -9999.000
 50280,  1.725,  1.253, 23.770,  3.566,  0.701
 50340,  1.769,  1.591, 23.919,  3.838,  0.772
 50400,  1.843,  1.570, 25.787,  3.780,  0.816
 50460,  1.823,  1.508, 26.737,  3.952,  0.772
 50520,  1.841,  1.489, 25.144,  3.835,  0.783
 50580,  1.825,  1.677, 26.699,  3.906,  0.765
 50640,  1.813,  1.700, 26.695,  3.926,  0.848
 50700,  1.839,  1.370, 26.711,  3.762,  0.706
 50760,  1.889,  1.419, 26.658,  3.875,  0.801
 50820,  1.895,  1.415, 26.204,  3.791,  0.783
 50880,  1.894,  1.841, 26.748,  3.909,  0.771
 50940,  1.910,  1.486, 27.752,  3.956,  0.840
 51000,  2.020,  1.723, 30.285,  4.225,  0.805
 51060,  2.052,  1.694, 31.532,  4.352,  0.808
 51120,  2.189,  1.847, 33.230,  4.547,  0.857
 51180,  2.237,  1.886, 31.929,  4.653,  0.837
 51240,  2.339,  2.011, 33.950,  4.794,  0.800
 51300,  2.448,  2.120, 35.156,  5.245,  0.805
 51360,  2.519,  2.050, 36.870,  5.177,  0.864
 51420,  2.545,  2.208, 37.143,  5.256,  0.860
 51480,  2.485,  1.936, 36.626,  5.254,  0.907
 51540,  2.452,  2.045, 34.977,  5.098,  0.960
 51600,  2.584,  1.891, 36.817,  5.003,  1.013
 51660,  2.531,  2.230, 35.865,  5.074,  1.028
 51720,  2.471,  2.410, 35.350,  5.316,  1.017
 51780,  2.570,  2.331, 36.592,  5.167,  1.087
 51840,  2.518,  2.517, 36.841,  5.008,  1.119
 51900,  2.417,  2.457, 34.996,  5.048,  1.013
 51960,  2.478,  2.251, 34.315,  4.918,  1.084
 52020,  2.476,  2.521, 35.718,  5.109,  1.062
 52080, -9999.000, -9999.000, -9999.000, -9999.000, -9999.000
 52140,  2.360,  2.399, 33.129,  4.871,  0.946
 52200,  2.382,  2.427, 33.467,  4.897,  0.894
 52260,  2.380,  2.222, 33.476,  5.023,  1.039
 52320,  2.440,  2.715, 35.617,  4.927,  0.957
 52380,  2.469,  2.504, 36.666,  5.151,  1.119
 52440,  2.440,  2.750, 35.174,  5.057,  1.014
 52500,  2.472,  2.720, 36.375,  5.055,  1.122
 52560,  2.526,  2.751, 35.316,  5.121,  0.977
 52620,  2.521,  2.936, 36.578,  5.089,  1.091
 52680,  2.599,  2.740, 37.642,  5.001,  1.055
 52740,  2.593,  3.171, 42.684,  5.553,  1.136
 52800,  2.578,  2.842, 40.282,  5.215,  1.159
 52860,  2.622,  2.722, 42.173,  5.348,  1.114
 52920,  2.631,  3.016, 41.944,  5.151,  1.091
 52980,  2.678,  2.964, 43.465,  5.375,  1.127
 53040,  2.592,  2.926, 41.489,  5.310,  1.076
 53100,  2.702,  3.128, 43.528,  5.444,  1.170
 53160,  2.707,  2.871, 47.159,  5.636,  1.199
 53220,  2.676,  3.236, 45.001,  5.451,  1.221
 53280,  2.752,  3.167, 43.478,  5.491,  1.053
 53340,  2.688,  3.180, 42.407,  5.559,  1.135
 53400,  2.674,  2.971, 41.578,  5.272,  1.050
 53460,  2.684,  3.074, 40.641,  5.368,  1.078
 53520,  2.680,  2.873, 41.413,  5.324,  1.032
 53580,  2.713,  3.072, 42.028,  5.524,  0.913
 53640,  2.643,  3.056, 39.036,  5.347,  1.081
 53700,  2.708,  3.163, 40.007,  5.377,  1.103
 53760,  2.860,  3.476, 42.995,  5.490,  1.057
 53820,  3.057,  3.420, 47.712,  5.723,  1.210
 53880,  3.024,  3.455, 46.653,  5.958,  1.134
 53940, -9999.000, -9999.000, -9999.000, -9999.000, -9999.000
 54000,  2.800,  3.277, 41.133,  5.591,  1.022
 54060,  2.955,  3.741, 43.840,  5.886,  1.039
 54120,  3.103,  3.956, 48.275,  6.283,  1.157
 54180,  3.201,  4.113, 52.212,  6.555,  1.234
 54240,  3.245,  4.277, 53.023,  6.539,  1.140
 54300,  3.170,  4.182, 49.590,  6.392,  1.329
 54360,  3.225,  3.943, 48.168,  6.503,  1.101
 54420,  3.287,  4.249, 47.743,  6.457,  1.376
 54480,  3.324,  4.289, 48.708,  6.618,  1.281
 54540,  3.331,  4.777, 49.041,  6.845,  1.350
 54600,  3.280,  4.274, 48.075,  6.678,  1.285
 54660,  3.297,  4.229, 46.975,  6.607,  1.253
 54720,  3.202,  4.085, 47.164,  6.365,  1.293
 54780,  3.326,  4.132, 47.782,  6.658,  1.387
 54840,  3.335,  4.066, 47.156,  6.912,  1.258
 54900,  3.397,  4.251, 49.606,  6.980,  1.358
 54960,  3.432,  4.264, 52.094,  7.114,  1.321
 55020,  3.534,  4.800, 54.247,  7.058,  1.385
 55080,  3.449,  4.118, 53.301,  7.016,  1.422
 55140,  3.343,  4.426, 48.015,  6.870,  1.360
 55200,  3.334,  4.140, 46.238,  6.530,  1.309
 55260,  3.356,  4.051, 43.877,  6.743,  1.188
 55320,  3.379,  4.432, 45.707,  6.706,  1.308
 55380,  3.446,  4.564, 43.554,  6.533,  1.146
 55440,  3.514,  4.281, 45.073,  6.537,  1.158
 55500,  3.520,  4.687, 45.187,  6.869,  1.228
 55560,  3.607,  4.839, 44.113,  7.021,  1.243
 55620,  3.580,  5.081, 45.867,  6.680,  1.249
 55680,  3.619,  5.522, 46.253,  7.120,  1.397
 55740,  3.662,  5.738, 44.560,  6.928,  1.547
 55800,  3.521,  4.972, 40.150,  6.019,  1.314
 55860,  3.612,  5.592, 40.930,  7.061,  1.361
 55920,  3.616,  5.417, 43.798,  7.262,  1.397
 55980,  3.639,  5.859, 44.305,  7.108,  1.422
 56040,  3.639,  5.709, 43.851,  7.202,  1.426
 56100,  3.733,  6.004, 43.142,  7.183,  1.364
 56160,  3.669,  6.237, 42.489,  7.506,  1.320
 56220,  3.733,  6.459, 43.697,  7.289,  1.463
 56280,  3.638,  5.838, 44.316,  7.070,  1.331
 56340,  3.648,  5.666, 43.514,  7.061,  1.227
 56400,  3.718,  6.524, 42.401,  7.314,  1.443
 56460,  3.637,  6.047, 43.311,  7.259,  1.619
 56520,  3.671,  6.416, 41.445,  7.032,  1.404
 56580,  3.734,  6.243, 45.011,  7.529,  1.434
 56640,  3.605,  5.414, 43.717,  6.994,  1.338
 56700,  3.644,  6.076, 42.209,  6.996,  1.322
 56760,  3.709,  6.710, 44.021,  7.321,  1.472
 56820,  3.707,  6.622, 46.096,  7.254,  1.362
 56880,  3.853,  6.878, 44.828,  7.325,  1.579
 56940,  3.823,  7.148, 46.466,  7.397,  1.386
 57000,  3.815,  7.537, 46.713,  7.676,  1.549
 57060,  3.825,  7.937, 47.266,  7.615,  1.578
 57120,  3.791,  7.812, 47.970,  7.424,  1.730
 57180,  3.904,  8.477, 47.794,  7.489,  1.781
 57240,  3.843,  8.589, 47.614,  7.540,  1.651
 57300,  3.850,  8.634, 48.047,  7.811,  1.778
 57360,  3.823,  8.569, 48.642,  7.763,  1.774
 57420,  3.959,  8.448, 48.799,  7.597,  1.805
 57480,  3.959,  8.672, 48.510,  7.802,  1.851
 57540,  3.964,  8.776, 48.024,  7.469,  1.724
 57600,  4.024,  9.160, 48.052,  7.299,  1.528
 57660,  3.920,  8.698, 44.068,  7.449,  1.447
 57720,  3.961,  9.584, 43.679,  7.645,  1.510
 57780,  4.138,  9.540, 45.782,  7.520,  1.625
 57840,  4.127,  9.855, 47.454,  8.127,  1.692
 57900,  4.060, 10.127, 47.061,  7.796,  1.821
 57960,  4.198, 10.029, 48.801,  7.834,  1.841
 58020,  4.036,  9.759, 46.269,  7.778,  1.713
 58080,  4.068, 10.079, 45.169,  7.739,  1.709
 58140,  4.131, 10.450, 45.410,  8.007,  1.685
 58200,  4.058, 10.800, 44.844,  7.460,  1.469
 58260,  4.160, 11.795, 44.271,  7.821,  1.685
 58320,  4.255, 12.270, 49.098,  7.661,  1.636
 58380,  4.382, 13.319, 49.024,  8.091,  1.632
 58440,  4.401, 13.409, 49.018,  8.035,  1.540
 58500,  4.351, 13.706, 49.026,  7.996,  1.636
 58560,  4.380, 14.109, 49.093,  8.050,  1.621
 58620,  4.312, 12.644, 47.067,  7.820,  1.470
 58680,  4.384, 13.948, 47.668,  7.945,  1.629
 58740,  4.510, 15.389, 47.170,  8.325,  1.632
 58800,  4.499, 16.341, 50.036,  8.161,  1.421
 58860,  4.513, 15.967, 49.281,  8.479,  1.438
 58920,  4.549, 17.016, 50.194,  8.115,  1.630
 58980,  4.482, 17.713, 51.712,  8.050,  1.457
 59040,  4.426, 18.353, 52.663,  8.156,  1.418
 59100,  4.597, 19.022, 52.068,  8.156,  1.477
 59160,  4.394, 19.705, 52.077,  8.336,  1.321
 59220,  4.435, 20.245, 54.665,  8.250,  1.395
 59280,  4.572, 20.596, 53.822,  8.073,  1.345
 59340,  4.618, 21.131, 53.644,  8.394,  1.368
 59400,  4.573, 20.963, 53.888,  8.200,  1.391
 59460,  4.593, 20.189, 53.555,  7.926,  1.526
 59520,  4.598, 22.044, 51.398,  8.169,  1.283
 59580,  4.492, 21.444, 51.960,  8.120,  1.362
 59640,  4.609, 21.765, 52.379,  8.376,  1.318
 59700,  4.443, 20.939, 51.210,  8.142,  1.293
 59760,  4.428, 21.361, 51.824,  8.226,  1.306
 59820,  4.428, 21.164, 49.578,  8.000,  1.258
 59880,  4.387, 21.297, 55.076,  8.023,  1.382
 59940,  4.520, 22.565, 53.782,  7.990,  1.431
 60000,  4.291, 20.157, 50.259,  7.786,  1.111
 60060,  4.220, 20.069, 50.618,  7.755,  1.259
 60120,  4.260, 20.200, 51.719,  7.557,  1.142
 60180,  4.272, 20.426, 50.779,  7.604,  1.137
 60240,  4.140, 20.052, 51.418,  7.406,  1.170
 60300,  4.185, 20.270, 50.248,  7.482,  1.086
 60360,  4.243, 20.148, 49.352,  7.557,  1.119
 60420,  4.083, 19.645, 48.512,  7.387,  1.165
 60480,  4.258, 20.963, 48.579,  7.842,  1.173
 60540,  4.305, 20.914, 47.776,  7.611,  1.136
 60600,  4.212, 19.441, 47.695,  7.499,  1.120
 60660,  3.997, 17.908, 47.501,  7.262,  1.163
 60720,  3.993, 18.221, 46.102,  6.952,  1.133
 60780,  3.989, 18.544, 47.686,  7.182,  1.204
 60840,  4.133, 19.518, 46.644,  7.292,  1.155
 60900,  4.267, 21.022, 46.622,  7.339,  1.127
 60960,  4.782, 24.996, 49.788,  7.700,  1.318
 61020,  5.474, 28.673, 50.975,  8.734,  1.208
 61080,  5.482, 26.907, 51.268,  8.467,  1.292
 61140,  5.754, 27.523, 51.330,  8.727,  1.326
 61200,  5.985, 27.661, 48.776,  9.268,  1.389
 61260,  6.175, 29.405, 48.673,  9.273,  1.471
 61320, -9999.000, -9999.000, -9999.000, -9999.000, -9999.000
 61380,  6.689, 27.817, 43.135,  9.000,  1.192
 61440,  7.040, 28.734, 47.202, 10.034,  1.470
 61500,  7.026, 26.733, 47.948, 10.465,  1.519
 61560,  7.139, 25.661, 46.951, 10.559,  1.418
 61620,  6.759, 20.676, 45.279, 10.154,  1.472
 61680,  6.849, 21.064, 46.463, 10.178,  1.525
 61740,  6.730, 19.919, 44.808, 10.140,  1.323
 61800,  6.584, 19.822, 44.259,  9.988,  1.290
 61860,  6.931, 19.248, 43.370, 10.032,  1.368
 61920,  7.015, 19.462, 43.623, 10.064,  1.410
 61980,  7.220, 20.045, 45.020, 10.503,  1.352
 62040,  7.289, 19.487, 42.775, 10.663,  1.371
 62100,  7.392, 20.218, 44.437, 10.409,  1.398
 62160,  7.483, 19.258, 44.163, 10.958,  1.397
 62220,  7.256, 19.385, 42.316, 10.308,  1.318
 62280,  7.170, 20.697, 42.578,  9.733,  1.441
 62340,  7.261, 20.869, 42.832,  9.909,  1.332
 62400,  7.520, 20.761, 42.293, 10.124,  1.378
 62460,  7.775, 20.490, 42.573, 10.305,  1.427
 62520,  7.717, 19.886, 44.022, 10.346,  1.272
 62580,  7.712, 19.204, 43.506, 10.452,  1.348
 62640,  8.047, 20.647, 44.437, 10.672,  1.479
 62700,  8.306, 22.020, 46.845, 10.653,  1.475
 62760,  8.051, 23.337, 45.507, 10.366,  1.463
 62820,  7.583, 22.859, 44.616,  9.565,  1.404
 62880,  6.820, 19.936, 45.901,  8.795,  1.337
 62940,  6.115, 18.995, 41.408,  7.841,  1.033
 63000,  5.784, 17.760, 43.529,  7.348,  1.071
 63060,  5.014, 15.676, 39.866,  6.209,  0.991
 63120,  4.852, 15.789, 40.128,  5.864,  0.854
 63180, -9999.000, -9999.000, -9999.000, -9999.000, -9999.000
 63240,  5.976, 18.927, 37.919,  6.695,  0.755
 63300,  6.343, 19.245, 40.295,  7.234,  0.803
 63360,  6.036, 17.949, 40.377,  7.081,  0.903
 63420,  5.679, 16.190, 39.051,  6.588,  0.702
 63480,  5.372, 15.821, 38.729,  6.389,  0.706
 63540,  5.405, 16.031, 37.842,  6.149,  0.696
 63600,  5.875, 17.202, 39.890,  6.563,  0.692
 63660,  5.779, 16.873, 40.755,  6.488,  0.798
 63720,  4.929, 14.210, 39.367,  5.694,  0.740
 63780,  4.218, 11.474, 35.947,  4.766,  0.648
 63840,  4.219, 11.091, 34.038,  4.699,  0.577
 63900,  4.659, 12.173, 34.830,  5.116,  0.740
 63960,  5.570, 13.434, 35.999,  5.861,  0.774
 64020,  5.458, 12.730, 33.642,  5.690,  0.655
 64080,  4.583, 10.680, 30.741,  5.039,  0.619
 64140,  4.498, 11.220, 30.943,  4.776,  0.556
 64200,  4.828, 13.058, 35.671,  4.995,  0.571
 64260,  5.187, 13.621, 37.491,  5.562,  0.651
 64320,  5.176, 14.656, 39.565,  5.413,  0.737
 64380, -9999.000, -9999.000, -9999.000, -9999.000, -9999.000
 64440,  4.671, 11.211, 30.156,  4.747,  0.526
 64500,  4.826, 11.209, 31.057,  5.164,  0.581
 64560,  5.516, 12.388, 32.779,  5.681,  0.629
 64620,  6.507, 12.771, 34.520,  6.282,  0.647
 64680,  6.636, 13.058, 34.927,  6.593,  0.555
 64740,  5.390,  9.641, 28.770,  5.701,  0.580
 64800,  5.003,  9.079, 26.511,  5.223,  0.557
 64860,  5.240, 10.232, 28.910,  5.507,  0.515
 64920,  5.297, 10.355, 29.499,  5.259,  0.586
 64980,  5.294, 10.303, 29.637,  5.225,  0.581
 65040,  4.819,  8.972, 29.138,  5.077,  0.483
 65100,  4.244,  8.315, 25.590,  4.586,  0.431
 65160,  4.848,  9.746, 27.070,  5.062,  0.535
 65220,  5.088, 10.785, 30.791,  5.128,  0.501
 65280,  5.221, 10.961, 34.455,  5.304,  0.608
 65340,  5.076, 10.063, 33.033,  5.200,  0.594
 65400,  5.274,  9.946, 31.059,  5.285,  0.566
 65460,  5.605, 10.957, 33.694,  5.607,  0.584
 65520,  5.632, 10.692, 33.514,  5.486,  0.590
 65580,  5.641, 10.655, 36.571,  5.597,  0.586
 65640,  5.695, 11.562, 35.866,  5.604,  0.589
 65700,  5.818, 11.597, 38.757,  6.035,  0.701
 65760,  6.553, 12.953, 37.066,  6.040,  0.765
 65820,  6.854, 12.750, 33.537,  6.135,  0.697
 65880,  6.616, 12.075, 31.689,  6.144,  0.663
 65940,  6.742, 12.067, 30.442,  6.193,  0.555
 66000,  6.509, 10.659, 28.042,  5.691,  0.561
 66060,  6.314,  9.757, 26.508,  5.650,  0.578
 66120,  6.619, 10.974, 28.220,  5.976,  0.562
 66180,  5.736, 11.462, 27.132,  5.608,  0.591
 66240,  5.881,  9.582, 24.064,  5.803,  0.625
 66300,  5.775,  8.693, 24.462,  5.658,  0.639
 66360,  5.728,  8.152, 23.492,  5.520,  0.486
 66420,  5.971,  8.826, 23.021,  5.644,  0.557
 66480,  5.974,  9.238, 24.835,  5.805,  0.488
 66540,  6.140,  9.228, 24.146,  5.780,  0.488
 66600,  5.813,  9.047, 25.511,  5.627,  0.524
 66660,  5.948,  8.929, 24.812,  5.617,  0.442
 66720,  5.640,  8.504, 24.867,  5.379,  0.594
 66780,  5.819,  8.666, 24.684,  5.514,  0.479
 66840,  5.721,  8.481, 24.581,  5.537,  0.531
 66900,  5.293,  7.552, 23.734,  5.091,  0.483
 66960,  4.353,  6.689, 22.251,  4.265,  0.416
 67020,  3.750,  5.251, 20.095,  4.122,  0.352
 67080,  3.830,  5.419, 21.729,  3.993,  0.422
 67140,  3.580,  4.729, 18.337,  3.713,  0.330
 67200,  3.947,  5.125, 18.904,  3.844,  0.335
 67260,  4.152,  5.625, 19.579,  4.290,  0.312
 67320,  4.123,  5.853, 21.681,  4.260,  0.369
 67380,  3.902,  4.720, 19.314,  4.148,  0.376
 67440,  4.134,  5.402, 21.376,  4.051,  0.407
 67500,  4.212,  5.783, 20.621,  4.170,  0.321
 67560,  4.081,  5.057, 20.877,  4.100,  0.328
 67620,  4.170,  5.198, 20.076,  4.217,  0.241
 67680,  3.904,  4.492, 19.220,  4.341,  0.300
 67740,  2.904,  3.055, 14.763,  3.529,  0.202
 67800,  2.712,  3.109, 16.111,  3.395,  0.242
 67860,  3.129,  3.785, 18.882,  3.331,  0.226
 67920,  3.306,  4.691, 22.363,  3.545,  0.231
 67980,  3.517,  4.932, 23.415,  3.285,  0.290
 68040, -9999.000, -9999.000, -9999.000, -9999.000, -9999.000
 68100,  3.401,  5.371, 21.505,  3.969,  0.192
 68160,  3.514,  4.978, 21.829,  3.713,  0.254
 68220,  3.103,  3.915, 21.223,  3.269,  0.202
 68280,  3.026,  3.589, 21.831,  2.959,  0.226
 68340,  2.912,  3.577, 22.775,  3.038,  0.171
 68400,  3.247,  3.674, 26.432,  3.131,  0.128
 68460,  3.486,  4.476, 26.972,  3.270,  0.157
 68520,  3.425,  4.136, 30.961,  3.344,  0.090
 68580,  3.986,  4.109, 31.827,  3.839,  0.158
 68640,  5.474,  4.320, 33.648,  5.023,  0.192
 68700,  5.499,  4.330, 31.376,  5.197,  0.150
 68760,  5.636,  4.857, 34.092,  5.335,  0.272
 68820,  5.822,  4.588, 31.863,  5.429,  0.377
 68880,  5.409,  4.146, 32.628,  5.368,  0.264
 68940,  4.243,  3.830, 32.278,  4.247,  0.203
 69000,  4.444,  3.629, 31.487,  4.308,  0.183
 69060,  4.913,  3.850, 29.970,  4.712,  0.286
 69120,  5.076,  3.994, 29.363,  4.910,  0.199
 69180,  4.996,  4.402, 31.593,  5.026,  0.331
 69240,  5.318,  4.174, 28.628,  5.125,  0.243
 69300,  5.265,  4.718, 31.882,  4.980,  0.202
 69360,  5.432,  4.720, 30.225,  5.167,  0.212
 69420,  5.587,  5.325, 32.470,  5.052,  0.262
 69480,  5.486,  4.759, 31.708,  4.980,  0.197
 69540,  5.333,  5.007, 32.080,  5.356,  0.201
 69600,  5.372,  4.633, 32.336,  5.212,  0.287
 69660,  5.309,  5.079, 32.166,  5.180,  0.127
 69720,  5.479,  5.053, 31.304,  5.179,  0.237
 69780,  5.645,  5.134, 30.577,  5.256,  0.293
 69840,  5.703,  4.773, 27.749,  5.409,  0.152
 69900,  5.825,  3.979, 24.839,  5.652,  0.198
 69960,  5.622,  4.671, 24.142,  5.523,  0.135
 70020,  5.742,  4.961, 24.953,  5.524,  0.205
 70080,  5.940,  5.329, 25.825,  5.359,  0.191
 70140,  5.842,  5.481, 29.701,  5.352,  0.245
 70200,  5.672,  5.263, 30.049,  5.491,  0.240
 70260,  5.603,  4.693, 30.281,  5.562,  0.233
 70320,  5.520,  4.383, 28.958,  5.171,  0.307
 70380,  5.583,  4.329, 27.866,  5.515,  0.225
 70440,  5.707,  4.601, 29.547,  5.803,  0.339
 70500,  5.635,  4.614, 28.931,  5.540,  0.263
 70560,  5.726,  4.611, 29.329,  5.559,  0.256
 70620,  5.807,  4.462, 29.422,  5.570,  0.326
 70680,  5.771,  4.641, 29.455,  5.437,  0.311
 70740,  5.784,  5.356, 29.139,  5.638,  0.371
 70800,  5.611,  4.931, 29.526,  5.939,  0.371
 70860,  5.535,  4.761, 28.543,  5.835,  0.381
 70920,  5.480,  3.756, 25.108,  5.614,  0.409
 70980,  5.532,  3.920, 24.618,  5.597,  0.369
 71040,  5.644,  4.402, 26.914,  5.787,  0.311
 71100,  5.775,  4.313, 25.993,  5.902,  0.421
 71160,  5.730,  4.206, 24.975,  5.990,  0.457
 71220,  5.759,  4.189, 25.440,  5.958,  0.485
 71280,  5.835,  4.280, 26.493,  6.052,  0.424
 71340,  5.861,  5.115, 25.811,  6.165,  0.402
 71400,  5.721,  4.830, 26.786,  5.863,  0.473
 71460,  5.743,  4.633, 24.400,  6.059,  0.410
 71520,  5.524,  4.210, 23.352,  6.008,  0.490
 71580,  5.457,  4.052, 21.444,  6.023,  0.401
 71640,  5.426,  4.163, 20.308,  6.174,  0.361
 71700,  5.859,  3.907, 21.459,  5.856, -0.117
 71760,  5.025,  4.245, 16.983,  5.279, -0.015
 71820,  5.315,  3.805, 16.114,  5.877,  0.415
 71880,  5.490,  4.004, 18.711,  5.988,  0.355
 71940,  5.640,  3.721, 18.749,  6.291,  0.337
 72000,  5.712,  3.893, 18.562,  5.981,  0.383
 72060,  5.720,  3.927, 18.611,  6.311,  0.353
 72120,  5.779,  3.828, 19.574,  6.363,  0.326
 72180,  5.688,  4.070, 19.810,  6.185,  0.393
 72240,  5.756,  4.251, 19.277,  6.132,  0.315
 72300,  5.758,  4.428, 19.521,  6.472,  0.324
 72360,  5.828,  4.162, 20.327,  6.292,  0.280
 72420,  5.707,  4.639, 20.182,  6.238,  0.316
 72480,  5.732,  4.029, 20.995,  6.501,  0.314
 72540,  5.841,  3.921, 19.921,  6.473,  0.293
 72600,  5.815,  4.740, 20.835,  6.141,  0.361
 72660,  5.880,  4.004, 21.463,  6.442,  0.430
 72720,  5.923,  4.245, 21.519,  6.410,  0.380
 72780,  6.044,  3.715, 20.806,  6.629,  0.299
 72840,  5.980,  4.452, 22.622,  6.740,  0.374
 72900,  5.766,  4.679, 22.326,  6.760,  0.460
 72960,  5.771,  4.805, 23.900,  6.398,  0.481
 73020,  5.880,  5.049, 24.988,  6.505,  0.436
 73080,  5.765,  4.761, 23.918,  6.646,  0.377
 73140,  5.351,  4.599, 23.560,  5.994,  0.384
 73200,  5.425,  4.986, 21.517,  6.166,  0.377
 73260,  5.434,  4.796, 21.479,  6.002,  0.301
 73320,  5.437,  3.904, 20.580,  6.102,  0.378
 73380,  5.472,  4.364, 20.405,  6.214,  0.339
 73440,  5.301,  4.015, 20.938,  6.177,  0.370
 73500,  5.536,  3.141, 20.105,  6.168,  0.357
 73560,  5.621,  3.318, 19.662,  6.335,  0.224
 73620,  5.326,  3.435, 18.247,  6.081,  0.439
 73680,  5.596,  3.176, 18.862,  6.439,  0.250
 73740,  5.655,  3.498, 19.541,  6.444,  0.327
 73800,  5.676,  3.439, 18.392,  6.792,  0.202
 73860,  5.679,  3.729, 19.762,  6.689,  0.206
 73920,  5.603,  4.429, 19.780,  6.617,  0.304
 73980,  5.464,  3.801, 18.645,  6.448,  0.312
 74040,  5.557,  4.034, 19.076,  6.482,  0.269
 74100,  5.547,  5.110, 20.755,  6.442,  0.246
 74160,  5.654,  4.427, 20.649,  6.260,  0.348
 74220,  5.722,  5.194, 20.821,  6.476,  0.400
 74280,  5.778,  4.649, 21.037,  6.194,  0.363
 74340,  5.620,  5.306, 22.413,  6.453,  0.365
 74400,  4.709,  4.817, 19.774,  5.385,  0.282
 74460,  4.939,  5.017, 18.221,  5.383,  0.271
 74520,  4.575,  5.660, 19.163,  5.007,  0.359
 74580,  5.285,  4.411, 18.956,  5.733,  0.296
 74640,  5.396,  3.796, 19.077,  6.255,  0.360
 74700,  5.434,  3.686, 17.955,  6.376,  0.320
 74760,  5.423,  3.875, 18.580,  6.375,  0.321
 74820,  5.477,  3.484, 18.097,  6.366,  0.284
 74880,  5.365,  4.072, 17.698,  6.118,  0.384
 74940,  5.115,  3.546, 16.340,  5.635,  0.241
 75000,  5.031,  3.196, 16.379,  5.857,  0.338
 75060,  4.963,  3.039, 16.768,  5.608,  0.320
 75120,  5.036,  3.528, 16.648,  5.721,  0.338
 75180,  5.040,  3.889, 18.376,  5.643,  0.342
 75240,  5.060,  4.337, 18.328,  5.727,  0.421
 75300,  5.226,  4.501, 18.315,  5.586,  0.397
 75360,  5.487,  3.806, 18.937,  5.831,  0.434
 75420, -9999.000, -9999.000, -9999.000, -9999.000, -9999.000
 75480,  5.153,  3.817, 15.952,  5.945,  0.332
 75540,  5.385,  4.515, 17.861,  6.047,  0.257
 75600,  5.389,  4.930, 18.793,  5.863,  0.425
 75660,  5.335,  5.459, 20.045,  5.725,  0.311
 75720,  5.426,  4.661, 19.476,  5.552,  0.405
 75780,  5.405,  4.067, 20.032,  5.580,  0.364
 75840,  5.334,  4.680, 21.062,  5.520,  0.307
 75900,  5.426,  4.808, 20.933,  5.603,  0.333
 75960,  5.448,  4.183, 19.134,  5.435,  0.237
 76020,  5.332,  3.850, 19.298,  5.380,  0.268
 76080,  5.426,  3.864, 20.383,  5.321,  0.299
 76140,  5.503,  3.791, 20.512,  5.370,  0.274
 76200,  5.357,  4.032, 21.378,  5.549,  0.344
 76260,  5.468,  4.143, 22.107,  5.838,  0.390
 76320,  5.392,  4.582, 21.952,  5.563,  0.358
 76380,  5.156,  4.928, 22.823,  5.092,  0.319
 76440,  4.888,  5.479, 24.937,  4.864,  0.334
 76500,  4.856,  6.057, 25.871,  4.275,  0.302
 76560,  4.752,  6.337, 26.184,  4.366,  0.341
 76620,  4.722,  6.181, 27.593,  3.726,  0.323
 76680,  4.741,  5.496, 27.679,  3.966,  0.351
 76740,  4.843,  6.342, 28.819,  4.198,  0.344
 76800,  4.742,  6.479, 29.113,  4.489,  0.403
 76860,  4.497,  6.464, 28.988,  3.976,  0.257
 76920,  4.493,  6.289, 30.594,  3.818,  0.360
 76980,  4.380,  6.465, 29.946,  3.615,  0.355
 77040,  4.196,  5.634, 29.711,  3.332,  0.404
 77100,  4.089,  5.659, 27.119,  3.247,  0.273
 77160,  4.008,  5.096, 26.616,  3.321,  0.329
 77220,  4.120,  5.236, 27.109,  3.455,  0.346
 77280, -9999.000, -9999.000, -9999.000, -9999.000, -9999.000
 77340,  3.025,  3.056, 17.490,  3.264,  0.204
 77400,  3.003,  2.860, 17.931,  2.869,  0.204
 77460,  2.870,  2.732, 17.128,  2.681,  0.203
 77520,  3.016,  3.168, 18.399,  2.818,  0.166
 77580,  2.942,  3.222, 18.027,  2.791,  0.089
 77640,  2.877,  2.880, 18.639,  2.657,  0.185
 77700,  2.927,  4.143, 19.902,  2.906,  0.134
 77760,  2.840,  3.162, 18.987,  2.634,  0.165
 77820,  2.913,  3.614, 21.183,  2.863,  0.124
 77880,  2.914,  4.038, 21.796,  2.811,  0.127
 77940,  2.987,  3.305, 22.864,  2.714,  0.086
 78000,  3.032,  3.113, 24.263,  2.655,  0.201
 78060,  3.046,  3.530, 23.517,  2.709,  0.069
 78120,  3.056,  3.452, 24.163,  2.705,  0.087
 78180,  2.958,  3.291, 22.800,  2.923,  0.178
 78240,  2.841,  3.213, 22.497,  2.770,  0.137
 78300,  2.820,  3.518, 22.817,  2.758,  0.142
 78360,  2.811,  3.719, 23.309,  2.676,  0.222
 78420,  2.820,  3.762, 23.897,  2.505,  0.120
 78480,  2.853,  4.305, 24.475,  2.685,  0.122
 78540,  2.990,  3.938, 24.403,  2.849,  0.148
 78600,  3.156,  3.912, 24.068,  2.725,  0.177
 78660,  3.196,  3.772, 25.318,  2.967,  0.079
 78720,  2.970,  4.248, 27.617,  2.881,  0.106
 78780,  2.966,  4.363, 26.884,  2.614,  0.218
 78840,  2.899,  4.331, 28.450,  2.696,  0.130
 78900,  3.012,  4.580, 27.854,  2.626,  0.114
 78960,  3.158,  3.745, 28.624,  2.911,  0.175
 79020,  3.153,  3.326, 28.595,  2.813,  0.166
 79080,  3.331,  3.484, 27.889,  2.658, -0.030
 79140, -9999.000, -9999.000, -9999.000, -9999.000, -9999.000
 79200,  3.289,  3.553, 23.101,  3.225,  0.135
 79260,  3.307,  3.492, 23.860,  3.112,  0.104
 79320,  3.325,  3.451, 25.451,  3.049,  0.054
 79380,  3.331,  4.134, 26.796,  3.002,  0.079
 79440,  3.313,  3.819, 27.082,  2.952,  0.032
 79500,  3.301,  4.068, 28.560,  2.845,  0.099
 79560,  3.280,  4.195, 28.055,  2.793,  0.160
 79620,  3.135,  4.190, 28.575,  2.749,  0.143
 79680,  3.104,  4.672, 28.214,  2.874,  0.134
 79740,  3.106,  4.966, 28.915,  2.799,  0.190
 79800,  3.202,  4.225, 30.417,  2.786,  0.273
 79860,  3.311,  4.649, 30.079,  2.544,  0.129
 79920,  3.315,  4.924, 31.623,  2.755,  0.115
 79980,  3.407,  5.536, 32.444,  2.912,  0.284
 80040,  3.505,  5.273, 34.583,  3.018,  0.292
 80100,  3.673,  5.514, 33.766,  2.899,  0.135
 80160,  3.594,  5.629, 35.812,  2.949,  0.215
 80220,  3.704,  5.343, 35.845,  3.092,  0.210
 80280,  3.734,  4.956, 34.114,  2.936,  0.173
 80340,  3.820,  4.268, 32.678,  3.084,  0.188
 80400,  3.817,  4.839, 33.639,  3.167,  0.253
 80460,  3.812,  4.667, 34.154,  3.154,  0.205
 80520,  3.840,  4.994, 33.393,  3.031,  0.267
 80580,  3.969,  4.170, 32.996,  3.115,  0.268
 80640,  4.039,  4.259, 35.075,  3.139,  0.225
 80700,  4.044,  3.941, 35.636,  3.143,  0.256
 80760,  4.133,  4.237, 37.512,  3.330,  0.263
 80820,  4.113,  4.662, 36.236,  3.100,  0.235
 80880,  4.214,  4.573, 38.300,  3.213,  0.355
 80940,  4.226,  4.791, 36.227,  3.477,  0.289
 81000, -9999.000, -9999.000, -9999.000, -9999.000, -9999.000
 81060,  4.354,  4.490, 35.842,  3.413,  0.172
 81120,  4.492,  4.786, 38.016,  3.249,  0.231
 81180,  4.341,  4.612, 38.362,  3.466,  0.280
 81240,  4.355,  5.112, 38.511,  3.478,  0.225
 81300,  4.337,  4.293, 39.309,  3.364,  0.274
 81360,  4.392,  4.446, 37.545,  3.463,  0.178
 81420,  4.356,  5.140, 39.967,  3.346,  0.217
 81480,  4.292,  5.114, 38.964,  3.454,  0.247
 81540,  3.877,  6.230, 40.197,  3.415,  0.227
 81600,  3.478,  5.211, 38.560,  3.004,  0.217
 81660,  3.388,  5.125, 39.192,  3.201,  0.251
 81720,  3.255,  4.636, 38.757,  2.968,  0.207
 81780,  3.225,  4.343, 38.300,  3.022,  0.216
 81840,  3.191,  3.678, 38.015,  2.805,  0.173
 81900,  2.949,  4.244, 37.395,  2.601,  0.212
 81960,  2.975,  4.096, 37.364,  2.516,  0.188
 82020,  2.923,  4.378, 36.244,  2.824,  0.181
 82080,  2.688,  3.515, 37.109,  2.614,  0.223
 82140,  2.691,  3.858, 35.335,  2.393,  0.184
 82200,  2.732,  3.762, 35.495,  2.680,  0.134
 82260,  2.799,  4.113, 35.349,  2.577,  0.182
 82320,  2.764,  4.254, 35.670,  2.597,  0.087
 82380,  2.857,  3.814, 35.756,  2.449,  0.153
 82440,  2.829,  3.935, 33.795,  2.443,  0.198
 82500,  2.926,  3.514, 32.738,  2.609,  0.152
 82560,  2.952,  3.411, 32.279,  2.807,  0.192
 82620,  3.046,  3.673, 32.657,  2.739,  0.121
 82680,  3.087,  3.727, 30.211,  2.538,  0.072
 82740,  3.054,  4.257, 30.967,  2.520,  0.084
 82800,  3.069,  4.998, 32.909,  2.523,  0.100
 82860, -9999.000, -9999.000, -9999.000, -9999.000, -9999.000
 82920,  3.150,  4.069, 27.307,  2.822,  0.079
 82980,  3.190,  3.824, 28.788,  2.881,  0.054
 83040,  3.159,  3.854, 27.999,  2.738,  0.072
 83100,  3.143,  3.926, 29.670,  2.945,  0.090
 83160,  3.241,  4.403, 29.543,  2.898,  0.022
 83220,  3.177,  3.866, 29.603,  2.863,  0.114
 83280,  3.151,  3.752, 28.940,  2.943,  0.080
 83340,  3.183,  4.239, 29.452,  2.837,  0.097
 83400,  3.169,  4.133, 30.640,  2.852,  0.104
 83460,  3.168,  4.373, 30.095,  3.052,  0.110
 83520,  3.246,  4.902, 31.012,  2.876,  0.031
 83580,  3.223,  5.232, 31.618,  2.826,  0.082
 83640,  3.285,  4.836, 31.139,  2.966,  0.134
 83700,  3.445,  5.228, 32.639,  3.066,  0.166
 83760,  3.530,  5.430, 32.711,  3.078,  0.104
 83820,  3.659,  5.775, 33.429,  3.105,  0.169
 83880,  3.703,  5.335, 32.425,  3.203,  0.162
 83940,  3.845,  5.739, 35.067,  3.145,  0.134
 84000,  3.804,  5.865, 37.118,  3.246,  0.112
 84060,  3.906,  5.971, 37.316,  3.280,  0.148
 84120,  3.934,  6.363, 37.850,  3.189,  0.125
 84180,  3.935,  6.038, 38.662,  3.189,  0.099
 84240,  3.998,  6.157, 37.119,  3.105,  0.112
 84300,  4.100,  6.613, 40.302,  3.393,  0.168
 84360,  4.082,  6.672, 40.480,  3.296,  0.148
 84420,  4.097,  6.673, 40.375,  3.283,  0.182
 84480,  4.150,  6.686, 40.443,  3.292,  0.176
 84540,  4.212,  6.611, 39.781,  3.489,  0.155
 84600,  4.344,  6.921, 39.556,  3.305,  0.121
 84660,  4.291,  6.927, 41.131,  3.195,  0.182
 84720,  3.990,  4.995, 40.420,  3.554, -0.012
 84780,  4.151,  5.890, 39.419,  3.518,  0.121
 84840,  3.882,  6.971, 43.368,  3.140,  0.101
 84900,  3.750,  7.437, 44.309,  2.970,  0.200
 84960,  3.649,  7.774, 46.514,  2.893,  0.101
 85020,  3.611,  7.695, 45.003,  2.932,  0.060
 85080,  3.698,  7.376, 46.581,  2.949,  0.214
 85140,  3.792,  7.697, 45.672,  3.283,  0.193
 85200,  3.655,  7.398, 46.162,  3.264,  0.101
 85260,  3.752,  7.310, 45.293,  3.022,  0.153
 85320,  3.712,  7.015, 43.445,  3.137,  0.135
 85380,  3.860,  7.433, 46.343,  3.126,  0.079
 85440,  3.871,  8.078, 47.555,  2.845,  0.141
 85500,  3.895,  8.378, 50.496,  3.241,  0.215
 85560,  3.957,  7.874, 48.765,  3.169,  0.191
 85620,  3.923,  7.722, 48.923,  3.183,  0.142
 85680,  4.037,  8.083, 47.760,  3.218,  0.213
 85740,  4.081,  8.259, 47.739,  3.515,  0.206
 85800,  4.333,  8.946, 48.938,  3.455,  0.202
 85860,  4.514,  8.312, 50.894,  3.344,  0.269
 85920,  4.750,  7.879, 48.777,  3.552,  0.202
 85980,  4.774,  7.824, 47.667,  3.520,  0.213
 86040,  4.598,  7.073, 47.264,  3.425,  0.342
 86100,  4.297,  6.542, 46.100,  3.660,  0.335
 86160,  4.266,  7.139, 44.780,  3.547,  0.209
 86220,  4.289,  7.648, 46.440,  3.380,  0.215
 86280,  4.467,  7.921, 45.628,  3.549,  0.293
 86340,  4.328,  7.840, 46.052,  3.668,  0.329
