34, 1001
Carrie Womack
NOAA Chemical Sciences Laboratory
2B Tech O3 UV Analyzer
USOS
1, 1
2024, 07, 31, 2024, 12, 21
60
Time_Start, seconds_past_midnight, Seconds from midnight UTC
1
1
-9999
O3_ppb, ppb, Ozone from 2B Tech UV Analyzer
1
SPECIAL COMMENTS:
18
PI_CONTACT_INFO: Address: 325 Broadway R/CSL7, Boulder, CO, 80305
PLATFORM: CSL Mobile Lab
LOCATION: Salt Lake City, UT
ASSOCIATED_DATA: N/A
INSTRUMENT_INFO: N/A
DATA_INFO: Units:
UNCERTAINTY: N/A
ULOD_FLAG: -7777
ULOD_VALUE: N/A
LLOD_FLAG: -8888
LLOD_VALUE: N/A
DM_CONTACT_INFO: Data Manager: Nate Howard
PROJECT_INFO: 
STIPULATIONS_ON_USE: Use of these data require prior ok from PI.
OTHER_COMMENTS: N/A
REVISION: R0
R0: Final data. RA: Preliminary Data.  For in-field use only.
Time_Start, O3_ppb
0.0,-9999.0
60.0,-9999.0
120.0,-9999.0
180.0,-9999.0
240.0,-9999.0
300.0,-9999.0
360.0,-9999.0
420.0,-9999.0
480.0,-9999.0
540.0,-9999.0
600.0,-9999.0
660.0,-9999.0
720.0,-9999.0
780.0,-9999.0
840.0,-9999.0
900.0,-9999.0
960.0,-9999.0
1020.0,-9999.0
1080.0,-9999.0
1140.0,-9999.0
1200.0,-9999.0
1260.0,-9999.0
1320.0,-9999.0
1380.0,-9999.0
1440.0,-9999.0
1500.0,-9999.0
1560.0,-9999.0
1620.0,-9999.0
1680.0,-9999.0
1740.0,-9999.0
1800.0,-9999.0
1860.0,-9999.0
1920.0,-9999.0
1980.0,-9999.0
2040.0,-9999.0
2100.0,-9999.0
2160.0,-9999.0
2220.0,-9999.0
2280.0,-9999.0
2340.0,73.7
2400.0,73.7
2460.0,74.0
2520.0,74.2
2580.0,72.5
2640.0,74.2
2700.0,75.4
2760.0,73.7
2820.0,74.2
2880.0,74.6
2940.0,74.1
3000.0,72.8
3060.0,75.7
3120.0,75.1
3180.0,74.5
3240.0,-9999.0
3300.0,-9999.0
3360.0,-9999.0
3420.0,-9999.0
3480.0,-9999.0
3540.0,-9999.0
3600.0,-9999.0
3660.0,-9999.0
3720.0,-9999.0
3780.0,-9999.0
3840.0,-9999.0
3900.0,-9999.0
3960.0,-9999.0
4020.0,-9999.0
4080.0,-9999.0
4140.0,-9999.0
4200.0,-9999.0
4260.0,-9999.0
4320.0,73.8
4380.0,72.8
4440.0,72.7
4500.0,71.8
4560.0,74.1
4620.0,73.3
4680.0,74.9
4740.0,73.4
4800.0,72.5
4860.0,74.5
4920.0,73.3
4980.0,73.4
5040.0,74.5
5100.0,73.1
5160.0,73.4
5220.0,74.0
5280.0,74.1
5340.0,72.1
5400.0,72.5
5460.0,72.3
5520.0,72.8
5580.0,73.4
5640.0,73.5
5700.0,73.5
5760.0,72.5
5820.0,73.0
5880.0,73.7
5940.0,71.6
6000.0,73.3
6060.0,73.5
6120.0,73.3
6180.0,73.4
6240.0,72.9
6300.0,71.1
6360.0,74.3
6420.0,70.3
6480.0,72.4
6540.0,73.4
6600.0,72.6
6660.0,73.1
6720.0,73.1
6780.0,72.2
6840.0,70.4
6900.0,72.2
6960.0,71.4
7020.0,70.8
7080.0,70.8
7140.0,70.1
7200.0,70.4
7260.0,71.6
7320.0,70.6
7380.0,70.7
7440.0,69.6
7500.0,68.9
7560.0,69.4
7620.0,68.2
7680.0,68.2
7740.0,67.9
7800.0,66.1
7860.0,66.5
7920.0,67.7
7980.0,65.2
8040.0,66.1
8100.0,64.8
8160.0,63.0
8220.0,62.8
8280.0,62.2
8340.0,62.0
8400.0,60.2
8460.0,60.9
8520.0,63.6
8580.0,62.9
8640.0,62.3
8700.0,62.7
8760.0,65.1
8820.0,65.4
8880.0,64.3
8940.0,63.4
9000.0,61.6
9060.0,59.9
9120.0,59.8
9180.0,60.4
9240.0,63.1
9300.0,62.4
9360.0,62.0
9420.0,62.1
9480.0,62.6
9540.0,61.6
9600.0,59.5
9660.0,58.9
9720.0,58.6
9780.0,59.3
9840.0,58.5
9900.0,59.5
9960.0,61.0
10020.0,59.8
10080.0,60.6
10140.0,59.7
10200.0,60.3
10260.0,59.4
10320.0,60.7
10380.0,59.5
10440.0,58.5
10500.0,59.7
10560.0,60.0
10620.0,58.6
10680.0,60.6
10740.0,60.7
10800.0,60.0
10860.0,60.5
10920.0,59.9
10980.0,60.0
11040.0,60.0
11100.0,60.5
11160.0,59.7
11220.0,61.3
11280.0,60.3
11340.0,61.3
11400.0,60.8
11460.0,60.1
11520.0,58.3
11580.0,58.0
11640.0,58.9
11700.0,59.8
11760.0,60.7
11820.0,62.8
11880.0,62.3
11940.0,62.0
12000.0,61.4
12060.0,60.2
12120.0,61.6
12180.0,61.6
12240.0,61.4
12300.0,61.4
12360.0,59.2
12420.0,59.0
12480.0,59.7
12540.0,61.2
12600.0,61.9
12660.0,60.7
12720.0,59.9
12780.0,61.9
12840.0,61.8
12900.0,60.9
12960.0,60.5
13020.0,62.7
13080.0,60.3
13140.0,61.4
13200.0,61.0
13260.0,60.2
13320.0,60.3
13380.0,60.5
13440.0,61.5
13500.0,61.6
13560.0,61.6
13620.0,59.3
13680.0,61.2
13740.0,60.4
13800.0,60.9
13860.0,60.6
13920.0,60.2
13980.0,60.5
14040.0,60.7
14100.0,60.0
14160.0,61.3
14220.0,59.8
14280.0,60.9
14340.0,61.2
14400.0,58.9
14460.0,60.7
14520.0,60.5
14580.0,60.3
14640.0,62.0
14700.0,60.6
14760.0,60.4
14820.0,60.7
14880.0,60.0
14940.0,61.9
15000.0,61.1
15060.0,62.4
15120.0,60.0
15180.0,58.7
15240.0,54.5
15300.0,57.3
15360.0,62.4
15420.0,62.7
15480.0,61.1
15540.0,60.8
15600.0,59.8
15660.0,63.1
15720.0,61.3
15780.0,62.0
15840.0,63.1
15900.0,61.4
15960.0,64.8
16020.0,63.3
16080.0,62.7
16140.0,63.0
16200.0,63.4
16260.0,64.1
16320.0,61.5
16380.0,61.9
16440.0,62.4
16500.0,63.9
16560.0,60.6
16620.0,56.1
16680.0,56.6
16740.0,62.3
16800.0,64.2
16860.0,63.7
16920.0,61.9
16980.0,61.9
17040.0,60.6
17100.0,59.5
17160.0,59.9
17220.0,59.2
17280.0,58.0
17340.0,58.4
17400.0,58.6
17460.0,58.9
17520.0,58.9
17580.0,59.2
17640.0,57.0
17700.0,56.0
17760.0,55.7
17820.0,57.9
17880.0,54.3
17940.0,53.3
18000.0,54.2
18060.0,53.9
18120.0,55.9
18180.0,54.9
18240.0,56.4
18300.0,53.7
18360.0,51.2
18420.0,55.3
18480.0,49.2
18540.0,50.3
18600.0,57.8
18660.0,54.4
18720.0,56.1
18780.0,60.9
18840.0,56.4
18900.0,51.9
18960.0,50.7
19020.0,52.7
19080.0,51.2
19140.0,56.7
19200.0,54.0
19260.0,55.2
19320.0,51.3
19380.0,54.0
19440.0,52.6
19500.0,47.4
19560.0,40.5
19620.0,38.4
19680.0,39.8
19740.0,40.2
19800.0,32.5
19860.0,36.2
19920.0,36.9
19980.0,30.8
20040.0,40.9
20100.0,36.9
20160.0,31.0
20220.0,33.1
20280.0,31.7
20340.0,32.8
20400.0,37.9
20460.0,36.6
20520.0,36.3
20580.0,34.8
20640.0,34.3
20700.0,33.4
20760.0,34.0
20820.0,33.4
20880.0,33.0
20940.0,32.7
21000.0,31.4
21060.0,31.3
21120.0,30.7
21180.0,31.1
21240.0,31.1
21300.0,30.9
21360.0,31.0
21420.0,30.7
21480.0,31.1
21540.0,30.7
21600.0,30.0
21660.0,30.6
21720.0,29.7
21780.0,29.1
21840.0,28.5
21900.0,29.3
21960.0,30.3
22020.0,29.6
22080.0,28.1
22140.0,28.2
22200.0,27.7
22260.0,28.5
22320.0,27.0
22380.0,28.5
22440.0,27.5
22500.0,27.9
22560.0,28.8
22620.0,27.6
22680.0,26.8
22740.0,27.5
22800.0,29.1
22860.0,29.6
22920.0,29.7
22980.0,27.5
23040.0,23.8
23100.0,18.7
23160.0,22.8
23220.0,23.8
23280.0,25.2
23340.0,24.5
23400.0,26.4
23460.0,22.9
23520.0,24.6
23580.0,25.2
23640.0,23.5
23700.0,25.1
23760.0,24.6
23820.0,24.2
23880.0,24.7
23940.0,26.5
24000.0,27.0
24060.0,26.9
24120.0,27.1
24180.0,25.4
24240.0,26.7
24300.0,26.7
24360.0,26.6
24420.0,27.9
24480.0,27.0
24540.0,26.5
24600.0,26.6
24660.0,26.2
24720.0,26.4
24780.0,25.5
24840.0,25.2
24900.0,25.2
24960.0,24.8
25020.0,24.9
25080.0,24.2
25140.0,23.5
25200.0,23.3
25260.0,24.7
25320.0,26.6
25380.0,24.3
25440.0,23.9
25500.0,21.7
25560.0,23.0
25620.0,23.2
25680.0,22.8
25740.0,25.7
25800.0,24.8
25860.0,26.2
25920.0,25.2
25980.0,27.2
26040.0,26.5
26100.0,26.3
26160.0,26.6
26220.0,26.1
26280.0,25.4
26340.0,25.8
26400.0,26.5
26460.0,25.6
26520.0,27.1
26580.0,25.6
26640.0,25.8
26700.0,25.1
26760.0,23.1
26820.0,23.7
26880.0,24.0
26940.0,24.1
27000.0,26.3
27060.0,24.4
27120.0,27.0
27180.0,29.7
27240.0,30.8
27300.0,28.3
27360.0,33.1
27420.0,34.2
27480.0,44.6
27540.0,48.3
27600.0,49.2
27660.0,45.0
27720.0,37.9
27780.0,28.0
27840.0,26.1
27900.0,38.3
27960.0,40.2
28020.0,40.8
28080.0,42.3
28140.0,40.2
28200.0,41.4
28260.0,39.2
28320.0,36.3
28380.0,33.2
28440.0,33.5
28500.0,33.9
28560.0,37.7
28620.0,33.8
28680.0,33.8
28740.0,33.6
28800.0,31.4
28860.0,33.3
28920.0,33.6
28980.0,32.9
29040.0,32.5
29100.0,32.2
29160.0,30.6
29220.0,29.1
29280.0,29.3
29340.0,29.8
29400.0,29.3
29460.0,29.1
29520.0,30.5
29580.0,31.3
29640.0,34.9
29700.0,34.8
29760.0,37.2
29820.0,45.4
29880.0,46.4
29940.0,48.3
30000.0,47.0
30060.0,44.6
30120.0,50.0
30180.0,51.2
30240.0,49.4
30300.0,47.4
30360.0,48.0
30420.0,52.0
30480.0,53.1
30540.0,53.5
30600.0,53.4
30660.0,54.7
30720.0,51.8
30780.0,50.2
30840.0,51.1
30900.0,48.4
30960.0,49.9
31020.0,44.6
31080.0,38.9
31140.0,41.5
31200.0,34.6
31260.0,34.6
31320.0,33.0
31380.0,33.3
31440.0,32.1
31500.0,32.8
31560.0,32.8
31620.0,33.0
31680.0,34.2
31740.0,32.7
31800.0,33.5
31860.0,37.2
31920.0,44.8
31980.0,31.5
32040.0,31.6
32100.0,31.7
32160.0,33.5
32220.0,34.8
32280.0,36.8
32340.0,39.5
32400.0,37.8
32460.0,41.3
32520.0,45.7
32580.0,46.9
32640.0,47.1
32700.0,50.1
32760.0,46.9
32820.0,43.3
32880.0,40.9
32940.0,36.6
33000.0,38.4
33060.0,43.3
33120.0,47.1
33180.0,49.0
33240.0,42.9
33300.0,45.3
33360.0,51.0
33420.0,53.1
33480.0,54.1
33540.0,55.0
33600.0,50.3
33660.0,49.6
33720.0,52.2
33780.0,51.2
33840.0,51.5
33900.0,49.3
33960.0,51.5
34020.0,54.0
34080.0,52.0
34140.0,53.3
34200.0,53.9
34260.0,51.8
34320.0,53.5
34380.0,52.9
34440.0,52.2
34500.0,51.5
34560.0,50.2
34620.0,42.2
34680.0,40.2
34740.0,40.3
34800.0,42.0
34860.0,50.0
34920.0,44.5
34980.0,46.5
35040.0,42.1
35100.0,50.2
35160.0,50.6
35220.0,49.4
35280.0,49.0
35340.0,51.4
35400.0,52.5
35460.0,54.0
35520.0,53.6
35580.0,52.3
35640.0,52.0
35700.0,52.5
35760.0,52.9
35820.0,52.7
35880.0,53.1
35940.0,52.2
36000.0,53.2
36060.0,53.3
36120.0,53.0
36180.0,53.9
36240.0,53.8
36300.0,54.4
36360.0,53.9
36420.0,53.5
36480.0,52.9
36540.0,49.4
36600.0,46.1
36660.0,41.9
36720.0,38.7
36780.0,43.3
36840.0,41.2
36900.0,31.3
36960.0,29.8
37020.0,29.1
37080.0,29.4
37140.0,29.8
37200.0,29.4
37260.0,30.7
37320.0,30.3
37380.0,31.1
37440.0,30.7
37500.0,30.2
37560.0,31.1
37620.0,30.5
37680.0,31.1
37740.0,30.5
37800.0,30.7
37860.0,29.5
37920.0,30.7
37980.0,30.2
38040.0,33.1
38100.0,34.0
38160.0,33.1
38220.0,31.7
38280.0,32.2
38340.0,32.8
38400.0,33.4
38460.0,34.5
38520.0,35.1
38580.0,33.7
38640.0,34.1
38700.0,33.6
38760.0,33.0
38820.0,33.0
38880.0,33.3
38940.0,32.7
39000.0,33.2
39060.0,32.6
39120.0,33.6
39180.0,32.6
39240.0,33.4
39300.0,32.5
39360.0,32.1
39420.0,32.2
39480.0,30.8
39540.0,30.7
39600.0,31.2
39660.0,31.2
39720.0,31.3
39780.0,30.9
39840.0,31.0
39900.0,31.4
39960.0,30.6
40020.0,30.0
40080.0,30.5
40140.0,29.3
40200.0,31.4
40260.0,32.7
40320.0,29.6
40380.0,31.3
40440.0,29.7
40500.0,28.2
40560.0,29.8
40620.0,30.3
40680.0,31.1
40740.0,29.8
40800.0,28.8
40860.0,29.1
40920.0,19.1
40980.0,23.1
41040.0,24.8
41100.0,28.3
41160.0,24.3
41220.0,25.1
41280.0,24.4
41340.0,25.3
41400.0,25.3
41460.0,22.8
41520.0,24.6
41580.0,26.5
41640.0,28.3
41700.0,29.4
41760.0,27.6
41820.0,28.2
41880.0,27.5
41940.0,28.4
42000.0,27.9
42060.0,26.2
42120.0,25.1
42180.0,24.7
42240.0,25.9
42300.0,27.1
42360.0,25.1
42420.0,25.7
42480.0,28.0
42540.0,25.3
42600.0,25.6
42660.0,25.9
42720.0,23.3
42780.0,23.2
42840.0,22.8
42900.0,20.9
42960.0,18.6
43020.0,20.0
43080.0,21.8
43140.0,19.3
43200.0,20.4
43260.0,18.1
43320.0,18.6
43380.0,18.9
43440.0,19.3
43500.0,21.8
43560.0,26.2
43620.0,27.6
43680.0,25.2
43740.0,23.7
43800.0,23.4
43860.0,22.8
43920.0,23.3
43980.0,23.6
44040.0,24.1
44100.0,23.1
44160.0,24.4
44220.0,24.0
44280.0,25.6
44340.0,21.6
44400.0,20.0
44460.0,26.8
44520.0,26.7
44580.0,26.2
44640.0,25.3
44700.0,24.2
44760.0,24.6
44820.0,25.4
44880.0,24.3
44940.0,22.8
45000.0,20.0
45060.0,20.8
45120.0,19.3
45180.0,20.6
45240.0,19.0
45300.0,20.8
45360.0,20.8
45420.0,20.2
45480.0,16.5
45540.0,16.9
45600.0,18.1
45660.0,18.1
45720.0,17.9
45780.0,19.8
45840.0,22.3
45900.0,24.8
45960.0,24.4
46020.0,22.9
46080.0,21.3
46140.0,19.9
46200.0,18.6
46260.0,20.1
46320.0,21.5
46380.0,20.3
46440.0,17.7
46500.0,19.8
46560.0,20.6
46620.0,19.9
46680.0,19.1
46740.0,20.5
46800.0,15.7
46860.0,15.5
46920.0,18.1
46980.0,17.1
47040.0,15.5
47100.0,16.3
47160.0,18.2
47220.0,16.6
47280.0,16.9
47340.0,16.9
47400.0,14.7
47460.0,14.1
47520.0,13.8
47580.0,15.7
47640.0,18.1
47700.0,18.0
47760.0,17.9
47820.0,17.0
47880.0,16.8
47940.0,16.5
48000.0,16.0
48060.0,15.8
48120.0,16.7
48180.0,17.2
48240.0,19.1
48300.0,20.0
48360.0,17.7
48420.0,17.8
48480.0,19.6
48540.0,20.2
48600.0,24.0
48660.0,22.6
48720.0,25.1
48780.0,25.6
48840.0,25.8
48900.0,27.5
48960.0,26.3
49020.0,27.3
49080.0,25.8
49140.0,25.4
49200.0,25.8
49260.0,26.7
49320.0,24.8
49380.0,26.4
49440.0,26.5
49500.0,30.2
49560.0,28.7
49620.0,25.3
49680.0,22.1
49740.0,24.6
49800.0,22.4
49860.0,23.6
49920.0,21.7
49980.0,22.0
50040.0,23.0
50100.0,22.5
50160.0,24.7
50220.0,24.9
50280.0,24.7
50340.0,24.4
50400.0,24.2
50460.0,25.7
50520.0,23.9
50580.0,25.0
50640.0,24.9
50700.0,25.7
50760.0,26.8
50820.0,26.8
50880.0,27.4
50940.0,26.4
51000.0,25.3
51060.0,29.4
51120.0,28.1
51180.0,26.8
51240.0,26.4
51300.0,23.7
51360.0,27.3
51420.0,25.4
51480.0,26.9
51540.0,25.9
51600.0,27.1
51660.0,26.3
51720.0,26.0
51780.0,25.8
51840.0,24.7
51900.0,26.3
51960.0,26.1
52020.0,26.4
52080.0,26.5
52140.0,28.0
52200.0,29.9
52260.0,28.7
52320.0,28.5
52380.0,29.4
52440.0,29.9
52500.0,29.4
52560.0,28.8
52620.0,29.2
52680.0,29.9
52740.0,28.5
52800.0,28.1
52860.0,28.1
52920.0,27.8
52980.0,28.1
53040.0,28.6
53100.0,28.7
53160.0,31.8
53220.0,30.3
53280.0,33.5
53340.0,33.3
53400.0,34.1
53460.0,34.2
53520.0,34.7
53580.0,34.6
53640.0,34.1
53700.0,34.2
53760.0,35.1
53820.0,35.3
53880.0,34.4
53940.0,34.1
54000.0,34.8
54060.0,35.8
54120.0,37.1
54180.0,37.1
54240.0,37.5
54300.0,36.7
54360.0,37.0
54420.0,37.2
54480.0,38.7
54540.0,39.3
54600.0,39.7
54660.0,37.6
54720.0,38.8
54780.0,36.8
54840.0,38.3
54900.0,38.3
54960.0,39.5
55020.0,39.9
55080.0,38.5
55140.0,39.4
55200.0,39.1
55260.0,40.8
55320.0,39.2
55380.0,39.9
55440.0,39.7
55500.0,39.3
55560.0,38.3
55620.0,38.6
55680.0,38.2
55740.0,38.0
55800.0,37.9
55860.0,38.4
55920.0,38.9
55980.0,39.6
56040.0,41.0
56100.0,42.9
56160.0,42.8
56220.0,43.6
56280.0,45.9
56340.0,46.0
56400.0,45.5
56460.0,46.1
56520.0,45.7
56580.0,45.5
56640.0,46.4
56700.0,45.8
56760.0,46.2
56820.0,47.4
56880.0,46.8
56940.0,47.1
57000.0,46.7
57060.0,47.1
57120.0,47.4
57180.0,46.0
57240.0,47.9
57300.0,48.5
57360.0,47.8
57420.0,48.4
57480.0,49.0
57540.0,48.3
57600.0,49.5
57660.0,49.4
57720.0,48.6
57780.0,49.2
57840.0,49.6
57900.0,47.8
57960.0,48.1
58020.0,50.0
58080.0,50.6
58140.0,51.0
58200.0,49.5
58260.0,49.3
58320.0,55.5
58380.0,56.6
58440.0,57.0
58500.0,56.8
58560.0,57.4
58620.0,56.8
58680.0,56.0
58740.0,56.6
58800.0,59.0
58860.0,57.7
58920.0,58.1
58980.0,59.5
59040.0,58.4
59100.0,60.2
59160.0,61.1
59220.0,60.3
59280.0,59.5
59340.0,60.5
59400.0,59.1
59460.0,60.1
59520.0,60.7
59580.0,61.6
59640.0,62.0
59700.0,61.6
59760.0,58.0
59820.0,59.1
59880.0,59.4
59940.0,59.7
60000.0,60.1
60060.0,60.6
60120.0,61.8
60180.0,62.5
60240.0,62.1
60300.0,62.2
60360.0,59.8
60420.0,59.1
60480.0,59.2
60540.0,58.6
60600.0,58.4
60660.0,62.3
60720.0,61.9
60780.0,62.9
60840.0,62.2
60900.0,61.8
60960.0,60.8
61020.0,62.8
61080.0,62.7
61140.0,62.8
61200.0,62.9
61260.0,62.2
61320.0,61.2
61380.0,63.7
61440.0,62.0
61500.0,62.6
61560.0,63.5
61620.0,63.7
61680.0,63.6
61740.0,60.1
61800.0,60.8
61860.0,62.4
61920.0,60.7
61980.0,62.7
62040.0,61.8
62100.0,62.7
62160.0,63.0
62220.0,62.4
62280.0,61.9
62340.0,62.0
62400.0,61.9
62460.0,64.9
62520.0,64.8
62580.0,64.8
62640.0,63.5
62700.0,62.6
62760.0,61.8
62820.0,62.9
62880.0,62.0
62940.0,63.6
63000.0,60.8
63060.0,60.0
63120.0,59.0
63180.0,58.8
63240.0,59.6
63300.0,61.0
63360.0,61.0
63420.0,61.5
63480.0,61.3
63540.0,61.5
63600.0,61.1
63660.0,62.7
63720.0,62.6
63780.0,61.9
63840.0,58.5
63900.0,57.7
63960.0,60.2
64020.0,61.8
64080.0,62.2
64140.0,62.6
64200.0,61.0
64260.0,62.8
64320.0,62.2
64380.0,63.3
64440.0,63.6
64500.0,63.5
64560.0,64.5
64620.0,62.4
64680.0,60.0
64740.0,62.9
64800.0,61.7
64860.0,63.4
64920.0,64.4
64980.0,65.0
65040.0,65.1
65100.0,65.3
65160.0,63.0
65220.0,64.0
65280.0,65.4
65340.0,68.9
65400.0,66.1
65460.0,67.8
65520.0,67.3
65580.0,67.7
65640.0,70.3
65700.0,66.9
65760.0,68.9
65820.0,68.9
65880.0,71.5
65940.0,72.2
66000.0,69.8
66060.0,69.6
66120.0,72.8
66180.0,72.9
66240.0,72.6
66300.0,73.7
66360.0,74.6
66420.0,74.2
66480.0,72.5
66540.0,73.3
66600.0,73.8
66660.0,71.7
66720.0,72.5
66780.0,73.9
66840.0,74.6
66900.0,72.7
66960.0,74.3
67020.0,74.4
67080.0,75.6
67140.0,74.3
67200.0,74.6
67260.0,72.5
67320.0,73.8
67380.0,72.9
67440.0,73.2
67500.0,75.6
67560.0,74.4
67620.0,75.9
67680.0,75.9
67740.0,75.5
67800.0,76.1
67860.0,74.7
67920.0,76.6
67980.0,75.9
68040.0,75.3
68100.0,77.1
68160.0,75.6
68220.0,77.2
68280.0,77.9
68340.0,78.9
68400.0,79.5
68460.0,79.9
68520.0,79.1
68580.0,75.1
68640.0,77.1
68700.0,76.0
68760.0,77.0
68820.0,75.0
68880.0,75.2
68940.0,74.7
69000.0,75.9
69060.0,74.7
69120.0,74.0
69180.0,74.5
69240.0,75.7
69300.0,75.0
69360.0,74.3
69420.0,73.4
69480.0,73.7
69540.0,72.3
69600.0,73.2
69660.0,73.6
69720.0,74.4
69780.0,73.2
69840.0,72.4
69900.0,73.4
69960.0,72.8
70020.0,73.5
70080.0,70.7
70140.0,73.2
70200.0,75.0
70260.0,75.5
70320.0,74.0
70380.0,72.3
70440.0,73.0
70500.0,73.4
70560.0,73.8
70620.0,73.2
70680.0,71.1
70740.0,72.5
70800.0,73.5
70860.0,71.0
70920.0,71.9
70980.0,72.1
71040.0,72.7
71100.0,73.8
71160.0,74.0
71220.0,72.0
71280.0,72.1
71340.0,70.9
71400.0,73.2
71460.0,74.0
71520.0,72.5
71580.0,72.5
71640.0,73.8
71700.0,72.4
71760.0,71.2
71820.0,71.9
71880.0,71.9
71940.0,72.5
72000.0,72.1
72060.0,72.6
72120.0,72.2
72180.0,73.3
72240.0,74.1
72300.0,73.7
72360.0,73.5
72420.0,73.0
72480.0,73.7
72540.0,73.5
72600.0,71.3
72660.0,71.7
72720.0,71.0
72780.0,71.1
72840.0,70.5
72900.0,72.4
72960.0,72.4
73020.0,71.9
73080.0,71.0
73140.0,69.1
73200.0,69.9
73260.0,71.6
73320.0,72.5
73380.0,72.1
73440.0,71.3
73500.0,71.7
73560.0,71.2
73620.0,70.3
73680.0,69.0
73740.0,68.8
73800.0,70.9
73860.0,70.2
73920.0,70.7
73980.0,71.6
74040.0,69.8
74100.0,68.6
74160.0,68.1
74220.0,66.6
74280.0,68.8
74340.0,68.3
74400.0,69.2
74460.0,69.0
74520.0,68.2
74580.0,70.4
74640.0,70.0
74700.0,69.4
74760.0,70.0
74820.0,71.8
74880.0,70.1
74940.0,70.3
75000.0,70.5
75060.0,70.6
75120.0,71.5
75180.0,70.4
75240.0,72.5
75300.0,71.7
75360.0,70.7
75420.0,71.0
75480.0,70.6
75540.0,71.6
75600.0,70.8
75660.0,72.5
75720.0,71.8
75780.0,72.1
75840.0,73.2
75900.0,74.4
75960.0,74.9
76020.0,76.2
76080.0,77.1
76140.0,78.1
76200.0,77.1
76260.0,76.1
76320.0,76.9
76380.0,77.2
76440.0,78.4
76500.0,80.6
76560.0,79.8
76620.0,77.7
76680.0,76.1
76740.0,76.3
76800.0,77.4
76860.0,78.4
76920.0,79.8
76980.0,80.0
77040.0,81.9
77100.0,80.2
77160.0,78.8
77220.0,79.8
77280.0,79.2
77340.0,77.1
77400.0,77.1
77460.0,77.2
77520.0,78.4
77580.0,79.4
77640.0,79.8
77700.0,80.0
77760.0,79.2
77820.0,79.9
77880.0,80.3
77940.0,79.9
78000.0,78.4
78060.0,78.8
78120.0,77.2
78180.0,77.7
78240.0,77.6
78300.0,79.8
78360.0,79.5
78420.0,78.0
78480.0,75.8
78540.0,75.1
78600.0,73.9
78660.0,77.1
78720.0,77.4
78780.0,78.6
78840.0,79.4
78900.0,80.3
78960.0,79.1
79020.0,80.2
79080.0,77.7
79140.0,78.3
79200.0,77.7
79260.0,76.6
79320.0,76.5
79380.0,77.5
79440.0,78.5
79500.0,79.1
79560.0,78.9
79620.0,79.0
79680.0,78.6
79740.0,79.8
79800.0,78.5
79860.0,79.6
79920.0,78.8
79980.0,78.8
80040.0,77.1
80100.0,80.7
80160.0,82.8
80220.0,80.9
80280.0,81.4
80340.0,84.4
80400.0,83.0
80460.0,84.9
80520.0,83.7
80580.0,83.3
80640.0,80.5
80700.0,79.1
80760.0,80.2
80820.0,79.6
80880.0,78.2
80940.0,80.2
81000.0,80.5
81060.0,79.2
81120.0,80.4
81180.0,81.0
81240.0,78.9
81300.0,79.3
81360.0,81.3
81420.0,82.1
81480.0,81.1
81540.0,81.4
81600.0,80.1
81660.0,78.7
81720.0,76.8
81780.0,78.7
81840.0,79.2
81900.0,80.8
81960.0,80.9
82020.0,81.8
82080.0,80.6
82140.0,81.5
82200.0,81.2
82260.0,80.8
82320.0,80.3
82380.0,80.5
82440.0,80.1
82500.0,79.3
82560.0,78.4
82620.0,78.1
82680.0,77.2
82740.0,77.9
82800.0,80.8
82860.0,79.7
82920.0,79.0
82980.0,79.9
83040.0,79.5
83100.0,80.9
83160.0,79.8
83220.0,80.4
83280.0,79.0
83340.0,77.5
83400.0,79.7
83460.0,77.7
83520.0,76.0
83580.0,75.4
83640.0,77.0
83700.0,79.1
83760.0,79.3
83820.0,79.3
83880.0,77.9
83940.0,78.6
84000.0,77.3
84060.0,76.8
84120.0,75.8
84180.0,73.9
84240.0,75.0
84300.0,74.5
84360.0,74.0
84420.0,74.2
84480.0,76.0
84540.0,75.3
84600.0,75.9
84660.0,75.8
84720.0,75.6
84780.0,74.7
84840.0,73.3
84900.0,74.9
84960.0,73.6
85020.0,72.2
85080.0,72.1
85140.0,71.9
85200.0,74.0
85260.0,74.5
85320.0,73.6
85380.0,73.7
85440.0,71.9
85500.0,72.0
85560.0,72.3
85620.0,72.3
85680.0,72.3
85740.0,72.2
85800.0,72.8
85860.0,73.2
85920.0,73.1
85980.0,72.4
86040.0,70.0
86100.0,71.4
86160.0,69.5
86220.0,69.5
86280.0,69.4
86340.0,71.6
