37, 1001
Michael A Robinson, Chris Jernigan, Subi Thakali
NOAA ESRL Chemical Sciences Laboratory and CIRES, U. of Colorado
NOAA Iodide CIMS Instrument
USOS
1, 1
2024, 07, 31, 2024, 08, 01
1
starttime_UTC, seconds_past_midnight, seconds_of_day_since_00:00:00_UTC
5
1, 1, 1, 1, 1
-9999, -9999, -9999, -9999, -9999
C4H7NO5_NOAACIMS, pptv, Gas_C4H7NO5_InSitu_S_AVMR, 
ISOPN_NOAACIMS, pptv, Gas_ISOPN_InSitu_S_AVMR, 
C5H10O3_NOAACIMS, pptv, Gas_C5H10O3_InSitu_S_AVMR, 
C5H9NO5_NOAACIMS, pptv, Gas_C5H9NO5_InSitu_S_AVMR, 
C10H17NO4_NOAACIMS, pptv, Gas_C10H17NO4_InSitu_S_AVMR, 
0
18
PI_CONTACT_INFO: 325 Broadway, R/CSD 7, Boulder, Colorado 80305; michael.a.robinson@noaa.gov; chris.jernigan@noaa.gov;
PLATFORM: NOAA CSL Mobile Lab
LOCATION: SLC, Utah
ASSOCIATED_DATA: 1Hz data also available on request.
INSTRUMENT_INFO: NOAA I- ToF CIMS
DATA_INFO: All data in parts per trillion by volume (pptv). 1 Hz data is available upon request.
UNCERTAINTY: TBD
ULOD_FLAG: -7777
ULOD_VALUE: N/A
LLOD_FLAG: -8888
LLOD_VALUE: N/A
DM_CONTACT_INFO: Nathan Howard; nathan.h.howard@noaa.gov
PROJECT_INFO: USOS, summer 2024. https://csl.noaa.gov/groups/csl7/measurements/2024usos/
STIPULATIONS_ON_USE: Users are strongly encouraged to contact the PI for proper data usage.
OTHER_COMMENTS: 
REVISION: RA
RA: Preliminary Data; For in-field use only
starttime_UTC, C4H7NO5_NOAACIMS, ISOPN_NOAACIMS, C5H10O3_NOAACIMS, C5H9NO5_NOAACIMS, C10H17NO4_NOAACIMS
     0, -9999.000, -9999.000, -9999.000, -9999.000, -9999.000
    60, -9999.000, -9999.000, -9999.000, -9999.000, -9999.000
   120, -9999.000, -9999.000, -9999.000, -9999.000, -9999.000
   180, -9999.000, -9999.000, -9999.000, -9999.000, -9999.000
   240, -9999.000, -9999.000, -9999.000, -9999.000, -9999.000
   300, -9999.000, -9999.000, -9999.000, -9999.000, -9999.000
   360, -9999.000, -9999.000, -9999.000, -9999.000, -9999.000
   420, -9999.000, -9999.000, -9999.000, -9999.000, -9999.000
   480, -9999.000, -9999.000, -9999.000, -9999.000, -9999.000
   540, -9999.000, -9999.000, -9999.000, -9999.000, -9999.000
   600, -9999.000, -9999.000, -9999.000, -9999.000, -9999.000
   660, -9999.000, -9999.000, -9999.000, -9999.000, -9999.000
   720, -9999.000, -9999.000, -9999.000, -9999.000, -9999.000
   780, -9999.000, -9999.000, -9999.000, -9999.000, -9999.000
   840, -9999.000, -9999.000, -9999.000, -9999.000, -9999.000
   900, -9999.000, -9999.000, -9999.000, -9999.000, -9999.000
   960, -9999.000, -9999.000, -9999.000, -9999.000, -9999.000
  1020, -9999.000, -9999.000, -9999.000, -9999.000, -9999.000
  1080, -9999.000, -9999.000, -9999.000, -9999.000, -9999.000
  1140, -9999.000, -9999.000, -9999.000, -9999.000, -9999.000
  1200, -9999.000, -9999.000, -9999.000, -9999.000, -9999.000
  1260, -9999.000, -9999.000, -9999.000, -9999.000, -9999.000
  1320, -9999.000, -9999.000, -9999.000, -9999.000, -9999.000
  1380, -9999.000, -9999.000, -9999.000, -9999.000, -9999.000
  1440, -9999.000, -9999.000, -9999.000, -9999.000, -9999.000
  1500, -9999.000, -9999.000, -9999.000, -9999.000, -9999.000
  1560, -9999.000, -9999.000, -9999.000, -9999.000, -9999.000
  1620, -9999.000, -9999.000, -9999.000, -9999.000, -9999.000
  1680, -9999.000, -9999.000, -9999.000, -9999.000, -9999.000
  1740, -9999.000, -9999.000, -9999.000, -9999.000, -9999.000
  1800, -9999.000, -9999.000, -9999.000, -9999.000, -9999.000
  1860, -9999.000, -9999.000, -9999.000, -9999.000, -9999.000
  1920, -9999.000, -9999.000, -9999.000, -9999.000, -9999.000
  1980, -9999.000, -9999.000, -9999.000, -9999.000, -9999.000
  2040, -9999.000, -9999.000, -9999.000, -9999.000, -9999.000
  2100, -9999.000, -9999.000, -9999.000, -9999.000, -9999.000
  2160, -9999.000, -9999.000, -9999.000, -9999.000, -9999.000
  2220, -9999.000, -9999.000, -9999.000, -9999.000, -9999.000
  2280, -9999.000, -9999.000, -9999.000, -9999.000, -9999.000
  2340, -9999.000, -9999.000, -9999.000, -9999.000, -9999.000
  2400, -9999.000, -9999.000, -9999.000, -9999.000, -9999.000
  2460, -9999.000, -9999.000, -9999.000, -9999.000, -9999.000
  2520, -9999.000, -9999.000, -9999.000, -9999.000, -9999.000
  2580, -9999.000, -9999.000, -9999.000, -9999.000, -9999.000
  2640, -9999.000, -9999.000, -9999.000, -9999.000, -9999.000
  2700, -9999.000, -9999.000, -9999.000, -9999.000, -9999.000
  2760, -9999.000, -9999.000, -9999.000, -9999.000, -9999.000
  2820, -9999.000, -9999.000, -9999.000, -9999.000, -9999.000
  2880, -9999.000, -9999.000, -9999.000, -9999.000, -9999.000
  2940, -9999.000, -9999.000, -9999.000, -9999.000, -9999.000
  3000, -9999.000, -9999.000, -9999.000, -9999.000, -9999.000
  3060, -9999.000, -9999.000, -9999.000, -9999.000, -9999.000
  3120, -9999.000, -9999.000, -9999.000, -9999.000, -9999.000
  3180, -9999.000, -9999.000, -9999.000, -9999.000, -9999.000
  3240, -9999.000, -9999.000, -9999.000, -9999.000, -9999.000
  3300,  1.527,  2.154, 10.601,  1.641, -0.051
  3360,  1.748,  4.283, 13.601,  2.970,  0.035
  3420,  1.896,  4.241, 16.808,  2.045,  0.026
  3480,  2.990,  3.213, 35.778,  6.315, -0.043
  3540,  1.834,  3.414, 17.728,  1.057,  0.076
  3600, -9999.000, -9999.000, -9999.000, -9999.000, -9999.000
  3660, -9999.000, -9999.000, -9999.000, -9999.000, -9999.000
  3720, -9999.000, -9999.000, -9999.000, -9999.000, -9999.000
  3780, -9999.000, -9999.000, -9999.000, -9999.000, -9999.000
  3840, -9999.000, -9999.000, -9999.000, -9999.000, -9999.000
  3900,  1.453,  3.809, 13.619,  2.275, -0.048
  3960,  1.717,  3.844, 15.021,  2.326,  0.083
  4020,  1.773,  3.430, 16.378,  2.373,  0.080
  4080,  1.719,  2.598, 15.335,  1.676, -0.027
  4140,  1.884,  4.785, 17.445,  2.447,  0.097
  4200,  1.952,  5.611, 18.652,  2.675,  0.198
  4260,  2.081,  6.040, 21.602,  2.926,  0.232
  4320,  1.951,  4.298, 19.668,  2.716, -0.012
  4380,  1.994,  5.198, 20.600,  2.820,  0.098
  4440, -9999.000, -9999.000, -9999.000, -9999.000, -9999.000
  4500,  2.150,  6.624, 20.520,  2.971,  0.410
  4560,  2.146,  6.629, 22.723,  3.057,  0.221
  4620,  2.281,  6.664, 23.764,  2.828,  0.175
  4680,  2.256,  7.249, 25.217,  2.872,  0.257
  4740,  2.313,  7.407, 26.612,  2.856,  0.240
  4800,  2.371,  7.023, 27.435,  2.985,  0.189
  4860,  2.265,  7.118, 27.880,  2.948,  0.193
  4920,  2.275,  7.181, 28.138,  2.797,  0.270
  4980,  2.276,  6.943, 27.303,  2.944,  0.211
  5040,  2.326,  6.868, 28.310,  2.879,  0.203
  5100,  2.251,  6.809, 28.689,  2.753,  0.205
  5160,  2.274,  7.035, 28.858,  2.914,  0.238
  5220,  2.297,  7.152, 28.958,  2.829,  0.217
  5280,  2.303,  6.956, 28.279,  2.768,  0.197
  5340,  2.281,  7.266, 28.319,  2.792,  0.191
  5400,  2.308,  6.928, 28.657,  2.836,  0.148
  5460,  2.233,  6.782, 28.160,  2.730,  0.180
  5520,  2.285,  7.188, 29.398,  2.804,  0.153
  5580,  2.183,  6.853, 29.110,  2.833,  0.202
  5640,  2.309,  7.036, 29.156,  2.721,  0.136
  5700,  2.276,  7.669, 30.447,  2.814,  0.159
  5760,  2.275,  7.145, 30.091,  2.815,  0.107
  5820,  2.222,  6.982, 28.140,  2.520,  0.057
  5880,  2.151,  6.345, 27.555,  2.694,  0.073
  5940,  2.180,  6.032, 26.263,  2.643,  0.023
  6000,  2.123,  6.114, 25.703,  2.701,  0.085
  6060,  2.128,  5.788, 24.571,  2.545,  0.038
  6120,  2.009,  5.806, 23.945,  2.311,  0.083
  6180,  1.948,  5.370, 21.824,  2.514,  0.031
  6240,  1.986,  5.326, 22.844,  2.249,  0.075
  6300, -9999.000, -9999.000, -9999.000, -9999.000, -9999.000
  6360,  1.957,  5.365, 21.175,  2.493, -0.004
  6420,  1.879,  5.705, 22.109,  2.443, -0.012
  6480,  1.979,  5.824, 22.055,  2.422,  0.060
  6540,  1.937,  5.493, 21.234,  2.471,  0.060
  6600,  1.968,  5.355, 21.010,  2.507,  0.045
  6660,  1.934,  5.620, 21.003,  2.496,  0.011
  6720,  2.010,  5.703, 23.023,  2.540,  0.020
  6780,  1.948,  5.852, 22.202,  2.421,  0.019
  6840,  1.995,  5.473, 22.651,  2.385,  0.033
  6900,  1.982,  5.656, 22.148,  2.689,  0.090
  6960,  1.996,  5.978, 22.333,  2.634,  0.069
  7020,  2.020,  6.341, 22.660,  2.636,  0.041
  7080,  2.075,  6.145, 23.012,  2.597,  0.082
  7140,  2.003,  5.800, 22.604,  2.604,  0.095
  7200,  2.031,  5.989, 23.670,  2.785,  0.075
  7260,  1.966,  6.216, 22.869,  2.872,  0.120
  7320,  2.028,  5.976, 22.937,  2.769,  0.069
  7380,  1.953,  6.022, 22.465,  2.758,  0.085
  7440,  1.975,  6.182, 22.618,  2.724,  0.072
  7500,  1.963,  5.719, 21.927,  2.619,  0.112
  7560,  1.967,  5.784, 22.556,  2.971,  0.096
  7620,  1.977,  5.701, 21.782,  2.667,  0.075
  7680,  1.923,  5.908, 22.532,  2.843,  0.126
  7740,  1.999,  5.910, 22.862,  2.856,  0.115
  7800,  2.029,  6.310, 22.230,  2.926,  0.106
  7860,  2.049,  6.697, 22.825,  3.002,  0.154
  7920,  2.038,  7.049, 23.928,  3.199,  0.183
  7980,  2.022,  7.014, 23.463,  3.024,  0.142
  8040,  2.032,  6.715, 23.127,  3.131,  0.197
  8100,  1.996,  7.418, 23.276,  3.238,  0.153
  8160, -9999.000, -9999.000, -9999.000, -9999.000, -9999.000
  8220,  2.031,  7.385, 21.192,  3.103,  0.111
  8280,  2.002,  7.453, 22.444,  3.373,  0.183
  8340,  2.018,  7.599, 22.724,  3.263,  0.228
  8400,  2.105,  7.573, 22.755,  3.410,  0.164
  8460,  2.049,  7.890, 23.134,  3.468,  0.183
  8520,  2.051,  7.968, 23.566,  3.373,  0.255
  8580,  2.069,  8.414, 23.214,  3.592,  0.217
  8640,  2.020,  8.139, 23.099,  3.621,  0.215
  8700,  1.973,  7.480, 24.505,  3.657,  0.201
  8760,  1.942,  6.791, 25.887,  3.715,  0.251
  8820,  1.928,  6.871, 26.809,  3.751,  0.200
  8880,  1.892,  7.176, 26.016,  3.888,  0.210
  8940,  1.877,  7.094, 26.826,  3.729,  0.199
  9000,  1.918,  7.566, 26.703,  3.595,  0.250
  9060,  1.906,  7.794, 27.991,  3.700,  0.270
  9120,  1.878,  7.781, 26.628,  3.618,  0.285
  9180,  1.801,  6.925, 26.742,  3.579,  0.288
  9240,  1.738,  6.624, 27.336,  3.557,  0.276
  9300,  1.760,  6.772, 28.638,  3.659,  0.294
  9360,  1.760,  6.481, 29.429,  3.676,  0.282
  9420,  1.757,  6.669, 29.516,  3.772,  0.374
  9480,  1.779,  6.658, 29.817,  3.864,  0.336
  9540,  1.735,  6.928, 28.924,  3.768,  0.289
  9600,  1.710,  6.959, 28.779,  3.786,  0.404
  9660,  1.761,  7.043, 29.294,  3.667,  0.375
  9720,  1.647,  7.020, 28.564,  3.811,  0.399
  9780,  1.690,  7.106, 29.071,  3.884,  0.293
  9840,  1.686,  6.592, 28.579,  4.010,  0.420
  9900,  1.650,  6.594, 28.442,  4.035,  0.289
  9960,  1.654,  6.573, 29.032,  3.997,  0.415
 10020,  1.476,  6.663, 26.856,  3.852,  0.271
 10080,  1.580,  6.447, 28.518,  3.889,  0.298
 10140,  1.629,  6.177, 27.715,  3.899,  0.315
 10200,  1.602,  6.679, 29.797,  4.008,  0.338
 10260,  1.658,  6.918, 29.585,  3.955,  0.365
 10320,  1.649,  6.464, 29.336,  3.785,  0.364
 10380,  1.641,  6.668, 29.803,  3.987,  0.273
 10440,  1.599,  6.555, 29.383,  3.847,  0.319
 10500,  1.597,  6.447, 29.246,  3.778,  0.382
 10560,  1.589,  6.505, 28.883,  3.895,  0.330
 10620,  1.603,  6.368, 28.705,  3.656,  0.365
 10680,  1.564,  6.053, 28.286,  3.803,  0.396
 10740,  1.512,  5.985, 27.952,  3.800,  0.310
 10800,  1.493,  5.799, 27.910,  3.962,  0.364
 10860,  1.498,  5.601, 27.692,  3.794,  0.359
 10920,  1.448,  5.350, 26.777,  3.713,  0.323
 10980,  1.465,  5.437, 25.905,  3.695,  0.402
 11040,  1.483,  5.005, 24.856,  3.479,  0.349
 11100,  1.434,  4.810, 25.527,  3.747,  0.401
 11160,  1.426,  4.760, 23.788,  3.435,  0.310
 11220,  1.388,  4.467, 23.710,  3.483,  0.418
 11280,  1.369,  4.909, 23.559,  3.388,  0.298
 11340,  1.401,  5.021, 23.391,  3.479,  0.413
 11400,  1.411,  4.880, 23.314,  3.394,  0.385
 11460,  1.406,  4.913, 22.805,  3.428,  0.347
 11520,  1.362,  4.936, 22.826,  3.551,  0.327
 11580,  1.401,  5.222, 23.100,  3.399,  0.370
 11640,  1.461,  4.752, 22.093,  3.583,  0.389
 11700,  1.385,  4.693, 23.183,  3.595,  0.344
 11760,  1.441,  5.067, 23.947,  3.661,  0.426
 11820,  1.482,  4.152, 25.080,  3.442,  0.441
 11880,  1.328,  5.530, 22.862,  3.275,  0.261
 11940,  1.492,  4.990, 22.756,  3.614,  0.344
 12000,  1.436,  5.461, 24.377,  3.618,  0.377
 12060,  1.460,  5.344, 25.697,  3.865,  0.427
 12120,  1.464,  6.044, 26.608,  3.947,  0.419
 12180,  1.547,  5.647, 26.876,  3.761,  0.378
 12240,  1.523,  5.475, 27.783,  3.933,  0.366
 12300,  1.539,  5.876, 27.520,  3.683,  0.362
 12360,  1.561,  5.788, 27.310,  3.778,  0.398
 12420,  1.561,  6.011, 27.538,  3.620,  0.351
 12480,  1.561,  5.880, 28.316,  3.791,  0.349
 12540,  1.531,  5.921, 27.818,  3.871,  0.401
 12600,  1.548,  5.434, 27.010,  3.763,  0.362
 12660,  1.537,  5.521, 27.834,  3.723,  0.310
 12720,  1.490,  5.804, 27.355,  3.711,  0.343
 12780,  1.478,  5.390, 26.837,  3.937,  0.312
 12840,  1.463,  4.984, 26.218,  3.790,  0.329
 12900,  1.478,  5.447, 26.083,  3.763,  0.280
 12960,  1.422,  5.592, 26.027,  3.642,  0.393
 13020,  1.433,  5.479, 25.900,  3.893,  0.366
 13080,  1.449,  5.311, 25.953,  3.876,  0.409
 13140,  1.403,  4.971, 26.562,  3.812,  0.366
 13200,  1.413,  5.165, 24.956,  3.772,  0.395
 13260,  1.357,  5.074, 24.307,  3.888,  0.351
 13320,  1.286,  4.696, 23.265,  3.847,  0.428
 13380,  1.317,  4.672, 23.578,  3.760,  0.444
 13440,  1.314,  4.320, 22.550,  3.662,  0.459
 13500,  1.289,  4.563, 23.236,  3.522,  0.343
 13560,  1.350,  4.728, 23.305,  3.591,  0.354
 13620,  1.285,  4.638, 22.983,  3.619,  0.429
 13680,  1.436,  4.497, 23.061,  3.617,  0.511
 13740,  1.249,  4.357, 22.346,  3.658,  0.370
 13800,  1.338,  4.740, 23.904,  3.642,  0.445
 13860,  1.329,  4.916, 23.692,  3.770,  0.454
 13920,  1.268,  4.674, 23.960,  3.937,  0.396
 13980,  1.336,  5.072, 24.687,  3.770,  0.405
 14040,  1.314,  4.741, 23.571,  3.745,  0.398
 14100,  1.350,  4.588, 23.755,  3.845,  0.402
 14160,  1.293,  4.614, 23.495,  3.893,  0.447
 14220,  1.336,  4.283, 22.642,  3.789,  0.397
 14280,  1.316,  4.516, 23.198,  3.691,  0.427
 14340,  1.308,  4.452, 22.418,  3.784,  0.503
 14400,  1.250,  4.461, 22.025,  3.643,  0.439
 14460,  1.317,  4.358, 22.365,  3.725,  0.523
 14520,  1.307,  4.240, 22.014,  3.915,  0.477
 14580,  1.291,  4.566, 22.732,  3.913,  0.506
 14640,  1.349,  4.304, 22.057,  3.856,  0.446
 14700,  1.272,  4.270, 23.194,  3.885,  0.426
 14760,  1.319,  4.617, 23.128,  3.539,  0.439
 14820,  1.352,  4.348, 22.234,  3.731,  0.481
 14880,  1.352,  4.320, 23.397,  3.834,  0.480
 14940,  1.308,  4.433, 23.383,  3.988,  0.440
 15000,  1.348,  4.496, 22.494,  3.822,  0.484
 15060,  1.353,  4.408, 22.309,  3.952,  0.529
 15120,  1.290,  4.326, 20.816,  3.830,  0.480
 15180,  1.331,  4.134, 21.891,  3.804,  0.448
 15240,  1.306,  4.367, 21.204,  3.731,  0.516
 15300,  1.332,  4.001, 20.748,  3.669,  0.500
 15360,  1.300,  3.707, 21.571,  3.913,  0.497
 15420,  1.384,  4.082, 21.678,  4.052,  0.588
 15480,  1.344,  4.093, 21.539,  3.974,  0.521
 15540, -9999.000, -9999.000, -9999.000, -9999.000, -9999.000
 15600,  1.245,  3.594, 18.866,  3.761,  0.542
 15660,  1.248,  3.916, 20.332,  3.831,  0.446
 15720,  1.307,  3.887, 19.536,  3.927,  0.539
 15780,  1.315,  4.033, 20.283,  4.020,  0.565
 15840,  1.329,  3.973, 20.958,  4.091,  0.493
 15900,  1.336,  4.239, 21.083,  4.050,  0.530
 15960,  1.384,  3.958, 21.294,  4.204,  0.559
 16020,  1.395,  4.257, 21.239,  4.199,  0.474
 16080,  1.393,  3.912, 21.809,  4.265,  0.459
 16140,  1.416,  4.067, 21.591,  4.292,  0.485
 16200,  1.349,  4.068, 21.313,  4.292,  0.494
 16260,  1.395,  4.026, 20.671,  4.078,  0.423
 16320,  1.391,  3.946, 21.144,  4.259,  0.488
 16380,  1.422,  4.411, 21.506,  4.354,  0.489
 16440,  1.437,  4.092, 21.521,  4.340,  0.515
 16500,  1.422,  4.331, 21.492,  4.371,  0.424
 16560,  1.441,  4.544, 21.194,  4.202,  0.354
 16620,  1.437,  4.616, 20.941,  4.137,  0.411
 16680,  1.418,  4.327, 20.067,  4.119,  0.428
 16740,  1.395,  4.577, 21.567,  4.194,  0.414
 16800,  1.497,  4.473, 22.116,  4.500,  0.463
 16860,  1.509,  4.638, 21.895,  4.503,  0.390
 16920,  1.501,  4.685, 22.511,  4.407,  0.444
 16980,  1.514,  4.487, 21.924,  4.566,  0.429
 17040,  1.430,  4.734, 20.965,  4.235,  0.442
 17100,  1.434,  4.358, 20.553,  4.122,  0.398
 17160,  1.385,  4.031, 20.252,  4.278,  0.435
 17220,  1.426,  4.447, 20.603,  4.350,  0.425
 17280,  1.391,  4.351, 21.214,  4.264,  0.477
 17340,  1.432,  4.274, 20.684,  4.467,  0.500
 17400,  1.496,  3.029, 23.136,  4.510,  0.440
 17460,  1.350,  4.394, 19.061,  4.234,  0.500
 17520,  1.360,  4.162, 18.988,  4.418,  0.528
 17580,  1.382,  4.603, 19.589,  4.214,  0.476
 17640,  1.376,  4.348, 19.973,  4.302,  0.551
 17700,  1.389,  4.421, 20.669,  4.263,  0.569
 17760,  1.359,  4.154, 20.399,  4.256,  0.490
 17820,  1.389,  4.422, 20.499,  4.427,  0.553
 17880,  1.439,  4.608, 19.466,  4.181,  0.565
 17940,  1.362,  4.608, 19.336,  4.179,  0.444
 18000,  1.339,  4.231, 19.269,  4.101,  0.583
 18060,  1.374,  4.429, 20.484,  4.457,  0.623
 18120,  1.379,  4.260, 21.153,  4.456,  0.751
 18180,  1.328,  4.199, 19.878,  4.370,  0.757
 18240,  1.414,  4.289, 19.989,  4.212,  0.624
 18300,  1.386,  4.653, 19.742,  4.216,  0.608
 18360,  1.409,  4.212, 19.534,  4.356,  0.513
 18420,  1.326,  4.340, 19.883,  4.392,  0.675
 18480,  1.397,  4.553, 20.078,  4.187,  0.591
 18540,  1.335,  4.321, 18.932,  4.246,  0.528
 18600,  1.373,  3.834, 18.642,  4.105,  0.533
 18660,  1.316,  4.526, 18.622,  4.225,  0.512
 18720,  1.310,  3.732, 16.852,  4.279,  0.557
 18780,  1.347,  3.651, 18.344,  4.366,  0.501
 18840,  1.361,  4.043, 18.986,  4.419,  0.602
 18900,  1.331,  4.180, 18.236,  4.383,  0.777
 18960,  1.312,  3.925, 18.951,  4.431,  0.828
 19020,  1.350,  4.157, 18.903,  4.540,  0.776
 19080,  1.329,  4.147, 17.849,  4.693,  0.804
 19140,  1.370,  3.958, 18.766,  4.776,  0.831
 19200,  1.264,  3.959, 18.380,  4.881,  0.888
 19260, -9999.000, -9999.000, -9999.000, -9999.000, -9999.000
 19320,  1.436,  4.510, 18.633,  5.415,  0.871
 19380,  1.283,  3.861, 17.921,  4.770,  0.830
 19440,  1.354,  4.062, 17.862,  4.895,  0.793
 19500,  1.287,  3.872, 16.277,  3.948,  0.644
 19560,  1.376,  4.214, 16.946,  3.975,  0.763
 19620,  1.387,  4.402, 17.283,  4.136,  0.710
 19680,  1.413,  4.674, 17.387,  4.634,  0.733
 19740,  1.380,  4.332, 16.717,  4.214,  0.688
 19800,  1.480,  4.861, 17.817,  5.033,  0.732
 19860,  1.502,  4.604, 18.446,  5.358,  0.779
 19920,  1.401,  4.378, 16.234,  4.744,  0.853
 19980,  1.535,  4.523, 18.039,  5.096,  0.850
 20040,  1.658,  5.213, 21.017,  6.069,  1.041
 20100,  1.760,  5.390, 22.161,  6.634,  1.013
 20160,  1.849,  5.205, 23.300,  6.868,  0.923
 20220,  1.819,  5.154, 22.253,  6.491,  0.857
 20280,  1.786,  5.042, 24.092,  6.341,  0.834
 20340,  1.820,  5.037, 22.522,  6.311,  0.888
 20400,  1.865,  5.274, 23.487,  6.703,  1.054
 20460,  1.919,  5.173, 23.880,  6.826,  1.186
 20520,  2.020,  5.276, 23.367,  7.069,  1.082
 20580,  2.269,  5.326, 28.825,  8.051,  1.271
 20640,  2.466,  5.005, 34.946,  8.574,  1.534
 20700,  2.416,  5.415, 33.129,  8.282,  1.476
 20760,  2.169,  5.568, 30.127,  7.523,  1.337
 20820,  2.266,  5.150, 31.440,  7.352,  1.326
 20880,  2.274,  4.911, 30.667,  7.330,  1.450
 20940,  2.259,  4.970, 30.550,  7.262,  1.507
 21000,  2.297,  4.972, 33.053,  7.358,  1.296
 21060,  2.381,  5.000, 32.003,  7.002,  0.966
 21120,  2.365,  4.513, 32.297,  6.607,  0.992
 21180,  2.278,  4.545, 34.343,  6.900,  1.184
 21240,  2.289,  4.437, 32.784,  6.595,  1.163
 21300,  2.246,  4.312, 33.799,  6.556,  1.351
 21360,  2.297,  4.287, 34.703,  6.711,  1.296
 21420,  2.182,  4.218, 34.712,  6.666,  1.488
 21480,  2.164,  4.091, 35.119,  6.409,  1.457
 21540,  2.252,  4.076, 35.359,  6.635,  1.458
 21600,  2.217,  4.120, 34.963,  6.529,  1.465
 21660,  2.251,  4.133, 34.679,  6.617,  1.716
 21720,  2.254,  4.159, 35.225,  6.529,  1.519
 21780,  2.311,  4.048, 35.121,  6.183,  1.315
 21840,  2.202,  3.802, 34.362,  6.153,  1.408
 21900,  2.302,  4.000, 35.761,  6.319,  1.375
 21960,  2.363,  4.023, 33.770,  6.444,  1.448
 22020,  2.329,  4.022, 33.326,  6.269,  1.435
 22080,  2.301,  4.253, 36.632,  6.386,  1.465
 22140,  2.278,  4.511, 34.432,  6.332,  1.483
 22200,  2.230,  3.911, 33.539,  6.425,  1.334
 22260,  2.278,  4.527, 33.975,  6.489,  1.435
 22320,  2.259,  3.933, 32.950,  6.485,  1.397
 22380,  2.238,  3.808, 32.668,  6.215,  1.482
 22440,  2.265,  3.980, 34.421,  6.111,  1.316
 22500,  2.251,  3.831, 34.221,  6.048,  1.280
 22560,  2.244,  4.154, 33.947,  6.257,  1.332
 22620,  2.233,  3.708, 33.732,  6.116,  1.341
 22680,  2.203,  3.919, 32.409,  5.842,  1.335
 22740,  2.251,  3.825, 34.373,  6.147,  1.405
 22800,  2.125,  3.712, 34.484,  6.010,  1.563
 22860,  2.079,  3.556, 33.982,  5.785,  1.378
 22920, -9999.000, -9999.000, -9999.000, -9999.000, -9999.000
 22980,  2.205,  4.121, 30.155,  5.425,  1.309
 23040,  2.183,  3.884, 30.065,  5.545,  1.260
 23100,  2.194,  3.923, 31.807,  6.202,  1.358
 23160,  2.265,  3.618, 32.050,  5.968,  1.278
 23220,  2.192,  3.899, 32.119,  6.061,  1.265
 23280,  2.152,  3.699, 31.629,  6.072,  1.354
 23340,  2.207,  3.706, 31.399,  5.969,  1.299
 23400,  2.164,  3.631, 31.547,  5.996,  1.292
 23460,  2.199,  4.024, 31.511,  5.869,  1.215
 23520,  2.207,  3.606, 31.716,  5.895,  1.287
 23580,  2.200,  3.672, 31.473,  5.933,  1.075
 23640,  2.261,  3.728, 31.161,  5.725,  1.115
 23700,  2.229,  3.632, 30.843,  5.693,  1.215
 23760,  2.246,  3.903, 32.014,  5.623,  1.315
 23820,  2.276,  3.941, 31.445,  5.854,  1.286
 23880,  2.259,  3.740, 30.942,  5.869,  1.291
 23940,  2.241,  3.758, 31.383,  5.991,  1.305
 24000,  2.239,  3.596, 30.513,  5.721,  1.293
 24060,  2.179,  3.876, 30.938,  5.884,  1.177
 24120,  2.203,  3.854, 32.408,  5.664,  1.221
 24180,  2.163,  3.865, 31.036,  5.472,  1.218
 24240,  2.153,  3.444, 29.813,  5.625,  1.207
 24300,  2.084,  3.445, 29.394,  5.386,  1.200
 24360,  2.075,  3.358, 29.181,  5.220,  1.122
 24420,  2.040,  3.725, 31.429,  5.593,  1.145
 24480,  2.141,  3.473, 31.394,  5.339,  1.153
 24540,  2.153,  3.686, 30.578,  5.552,  1.173
 24600,  2.170,  3.516, 30.013,  5.360,  1.202
 24660,  2.130,  3.478, 29.279,  5.354,  1.240
 24720,  2.194,  3.469, 31.133,  5.322,  1.165
 24780, -9999.000, -9999.000, -9999.000, -9999.000, -9999.000
 24840,  2.157,  3.240, 28.390,  5.275,  1.163
 24900,  2.201,  3.145, 28.763,  5.357,  1.157
 24960,  2.213,  3.499, 29.599,  5.459,  1.177
 25020,  2.230,  3.275, 30.409,  5.368,  1.262
 25080,  2.267,  3.579, 30.857,  5.263,  1.352
 25140,  2.215,  3.173, 29.353,  5.369,  1.264
 25200,  2.149,  3.574, 29.165,  5.459,  1.375
 25260,  2.141,  3.592, 28.293,  5.560,  1.330
 25320,  2.109,  3.405, 29.283,  5.405,  1.334
 25380,  2.149,  3.438, 29.021,  5.215,  1.418
 25440,  2.126,  3.423, 27.906,  5.293,  1.376
 25500,  2.146,  3.574, 27.598,  5.529,  1.349
 25560,  2.093,  3.144, 26.162,  5.439,  1.302
 25620,  2.117,  3.457, 27.091,  5.437,  1.215
 25680,  2.109,  3.610, 25.979,  5.600,  1.320
 25740,  2.109,  3.687, 26.032,  5.955,  1.473
 25800,  2.054,  3.551, 24.849,  5.743,  1.477
 25860,  2.040,  3.534, 25.066,  6.118,  1.482
 25920,  2.023,  3.550, 24.343,  5.923,  1.459
 25980,  2.096,  3.731, 25.623,  6.073,  1.603
 26040,  2.118,  3.723, 25.912,  6.377,  1.727
 26100,  2.121,  3.730, 26.042,  6.257,  1.558
 26160,  2.123,  3.780, 24.516,  6.418,  1.568
 26220,  2.061,  3.818, 25.329,  6.234,  1.389
 26280,  2.120,  3.629, 27.081,  6.261,  1.391
 26340,  2.083,  3.616, 26.437,  6.495,  1.424
 26400,  2.091,  3.727, 26.156,  6.196,  1.432
 26460,  2.023,  3.660, 26.033,  6.428,  1.453
 26520,  2.092,  3.615, 26.397,  6.373,  1.447
 26580,  2.106,  3.762, 26.477,  6.291,  1.519
 26640, -9999.000, -9999.000, -9999.000, -9999.000, -9999.000
 26700,  1.939,  3.297, 23.305,  5.828,  1.276
 26760,  1.943,  3.360, 23.470,  5.878,  1.283
 26820,  2.030,  3.615, 24.875,  5.810,  1.309
 26880,  2.025,  3.467, 25.653,  5.853,  1.347
 26940,  1.976,  3.356, 25.871,  6.089,  1.357
 27000,  1.999,  3.765, 25.761,  6.334,  1.342
 27060,  2.014,  3.533, 25.407,  6.007,  1.443
 27120,  2.052,  3.782, 25.509,  6.343,  1.371
 27180,  2.023,  3.687, 25.679,  6.339,  1.222
 27240,  2.120,  3.751, 26.416,  6.824,  1.103
 27300,  2.115,  3.693, 26.854,  6.305,  1.283
 27360,  1.997,  4.086, 26.397,  6.504,  1.012
 27420,  2.045,  3.650, 26.074,  6.392,  0.968
 27480,  2.041,  4.038, 26.989,  6.334,  0.840
 27540,  1.994,  3.779, 26.324,  6.670,  0.650
 27600,  2.017,  3.850, 26.826,  6.458,  0.629
 27660,  2.114,  3.815, 27.021,  6.226,  0.586
 27720,  2.090,  3.737, 28.485,  5.956,  0.897
 27780,  2.241,  3.582, 30.175,  5.987,  1.144
 27840,  2.187,  3.356, 30.531,  5.911,  1.337
 27900,  2.120,  3.979, 29.502,  6.161,  1.073
 27960,  2.111,  3.720, 28.625,  6.445,  0.956
 28020,  2.116,  3.911, 28.968,  6.238,  0.897
 28080,  2.026,  4.037, 30.570,  6.384,  0.809
 28140,  2.039,  3.957, 29.912,  6.317,  0.883
 28200,  2.090,  3.951, 30.115,  6.330,  0.854
 28260,  2.114,  3.495, 31.190,  6.437,  0.994
 28320,  2.073,  3.490, 31.801,  6.004,  1.019
 28380,  2.104,  3.801, 31.292,  6.254,  1.174
 28440,  2.201,  3.718, 32.491,  6.123,  1.323
 28500,  2.064,  3.511, 28.611,  5.614,  1.120
 28560,  1.993,  3.408, 28.677,  6.165,  1.001
 28620,  2.046,  3.285, 29.687,  6.001,  0.977
 28680,  2.024,  3.268, 31.758,  5.906,  1.167
 28740,  2.005,  3.269, 30.619,  5.701,  1.147
 28800,  2.022,  3.296, 29.866,  5.534,  1.148
 28860,  1.992,  3.311, 30.962,  5.768,  1.021
 28920,  2.026,  3.110, 29.302,  5.886,  1.073
 28980,  2.022,  3.315, 28.929,  5.656,  1.065
 29040,  1.983,  3.293, 30.613,  5.607,  1.171
 29100,  1.973,  3.147, 30.814,  5.607,  1.296
 29160,  1.940,  3.168, 29.326,  5.749,  1.335
 29220,  1.978,  3.204, 29.192,  5.603,  1.325
 29280,  2.012,  3.565, 28.847,  5.941,  1.393
 29340,  1.965,  3.253, 29.224,  5.755,  1.636
 29400,  1.988,  3.231, 29.444,  5.738,  1.569
 29460,  1.955,  3.471, 29.120,  5.605,  1.579
 29520,  1.980,  3.294, 27.191,  5.767,  1.556
 29580,  1.989,  3.989, 27.591,  6.006,  1.491
 29640,  2.082,  3.733, 28.877,  6.058,  1.430
 29700,  2.071,  3.884, 29.567,  6.091,  1.409
 29760,  2.038,  4.136, 29.217,  6.219,  1.263
 29820,  2.091,  4.315, 29.450,  6.706,  1.006
 29880,  2.068,  4.491, 29.933,  6.812,  0.944
 29940,  2.183,  4.470, 30.988,  6.994,  0.932
 30000,  2.047,  4.140, 31.997,  6.512,  1.048
 30060,  2.085,  4.353, 30.454,  6.669,  0.897
 30120,  2.084,  4.673, 30.816,  6.906,  0.923
 30180,  2.162,  4.782, 31.478,  6.776,  0.882
 30240,  2.098,  4.518, 31.261,  6.770,  0.837
 30300, -9999.000, -9999.000, -9999.000, -9999.000, -9999.000
 30360,  2.001,  4.641, 31.161,  6.174,  0.765
 30420,  2.092,  4.917, 32.195,  6.835,  0.856
 30480,  2.077,  4.933, 32.042,  7.170,  0.726
 30540,  2.178,  5.044, 34.570,  7.170,  0.740
 30600,  2.189,  5.289, 36.750,  7.100,  0.799
 30660,  2.158,  4.957, 36.782,  7.195,  0.801
 30720,  2.195,  4.629, 36.519,  7.030,  0.815
 30780,  2.165,  5.007, 36.225,  7.180,  0.807
 30840,  2.250,  4.689, 36.394,  7.588,  0.781
 30900,  2.243,  4.922, 37.705,  7.328,  0.795
 30960,  2.276,  4.372, 38.679,  7.591,  0.855
 31020,  2.247,  4.398, 38.583,  7.569,  0.927
 31080,  2.275,  4.497, 37.989,  7.521,  1.125
 31140,  2.261,  4.026, 36.515,  7.470,  1.005
 31200,  2.191,  3.713, 35.534,  7.019,  1.152
 31260,  2.195,  3.788, 35.072,  6.855,  1.195
 31320,  2.223,  3.765, 35.979,  6.902,  1.205
 31380,  2.204,  3.651, 34.036,  6.806,  1.341
 31440,  2.174,  3.500, 33.489,  6.748,  1.263
 31500,  2.131,  3.831, 32.088,  6.623,  1.113
 31560,  2.136,  3.248, 31.697,  6.651,  1.205
 31620,  2.205,  3.184, 32.297,  6.836,  1.368
 31680,  2.139,  3.525, 32.205,  6.819,  1.425
 31740,  2.144,  3.547, 31.267,  6.589,  1.451
 31800,  2.003,  3.233, 31.092,  6.599,  1.408
 31860,  2.044,  3.658, 31.675,  6.624,  1.167
 31920,  2.137,  3.990, 33.748,  6.930,  1.119
 31980,  2.197,  3.308, 31.620,  6.869,  1.254
 32040,  2.170,  3.415, 30.127,  6.967,  1.438
 32100,  2.088,  3.318, 30.339,  6.357,  1.421
 32160, -9999.000, -9999.000, -9999.000, -9999.000, -9999.000
 32220,  1.813,  2.831, 29.881,  5.369,  1.211
 32280,  1.783,  2.592, 33.241,  5.183,  1.188
 32340,  1.825,  2.849, 32.152,  5.252,  1.056
 32400,  1.743,  2.569, 31.371,  5.273,  1.129
 32460,  1.825,  3.206, 32.140,  5.767,  1.084
 32520,  1.910,  3.944, 31.739,  6.296,  0.895
 32580,  1.985,  4.048, 32.351,  6.697,  0.950
 32640,  2.089,  4.589, 34.140,  7.151,  0.699
 32700,  2.112,  4.414, 33.538,  7.190,  0.820
 32760,  2.044,  3.663, 34.614,  6.775,  0.965
 32820,  1.975,  3.324, 34.360,  6.062,  1.004
 32880,  1.889,  3.127, 32.499,  5.927,  0.969
 32940,  1.882,  2.828, 32.910,  5.635,  1.143
 33000,  1.897,  2.936, 33.119,  5.749,  1.137
 33060,  1.923,  3.674, 32.578,  6.282,  0.947
 33120,  2.013,  4.149, 32.746,  6.824,  0.848
 33180,  2.039,  4.116, 33.361,  6.753,  0.774
 33240,  1.972,  3.492, 34.442,  6.308,  0.976
 33300,  2.054,  3.926, 33.573,  6.788,  0.798
 33360,  2.100,  4.440, 33.000,  7.203,  0.795
 33420,  2.126,  4.732, 34.040,  7.732,  0.749
 33480,  2.140,  4.751, 33.721,  7.892,  0.563
 33540,  2.233,  4.978, 35.811,  8.148,  0.545
 33600,  2.105,  3.981, 36.927,  7.103,  0.770
 33660,  2.135,  4.770, 36.771,  7.510,  0.743
 33720,  2.154,  4.501, 36.007,  7.565,  0.703
 33780,  2.137,  4.521, 36.104,  7.732,  0.727
 33840,  2.248,  4.513, 37.071,  7.712,  0.725
 33900,  2.097,  4.289, 35.828,  7.268,  0.668
 33960,  2.159,  4.405, 36.476,  7.712,  0.659
 34020, -9999.000, -9999.000, -9999.000, -9999.000, -9999.000
 34080,  1.979,  4.524, 31.726,  7.251,  0.532
 34140,  2.162,  4.916, 33.475,  7.465,  0.508
 34200,  2.124,  4.734, 36.604,  7.558,  0.540
 34260,  2.105,  4.410, 35.481,  7.397,  0.646
 34320,  2.175,  4.697, 36.784,  7.711,  0.615
 34380,  2.158,  4.925, 37.835,  8.152,  0.648
 34440,  2.144,  4.338, 35.803,  7.539,  0.583
 34500,  2.262,  4.751, 36.552,  7.740,  0.633
 34560,  2.145,  4.171, 38.225,  7.148,  0.729
 34620,  2.038,  3.478, 37.581,  6.554,  1.028
 34680,  1.981,  3.351, 36.860,  6.190,  0.935
 34740,  2.043,  3.525, 36.099,  6.245,  0.936
 34800,  1.991,  3.980, 35.833,  6.444,  0.827
 34860,  2.086,  4.419, 35.730,  7.174,  0.771
 34920,  2.082,  3.777, 37.992,  6.864,  0.917
 34980,  2.095,  4.011, 37.454,  6.971,  0.838
 35040,  2.063,  3.936, 35.647,  6.536,  0.887
 35100,  2.072,  4.549, 36.722,  7.292,  0.822
 35160,  2.115,  4.434, 36.790,  7.336,  0.705
 35220,  2.014,  4.355, 35.673,  7.209,  0.805
 35280,  2.005,  4.548, 35.047,  6.781,  0.763
 35340,  2.111,  4.714, 36.306,  7.266,  0.625
 35400,  2.054,  4.769, 36.712,  7.371,  0.574
 35460,  2.127,  4.782, 37.599,  7.569,  0.617
 35520,  2.052,  4.755, 38.035,  7.507,  0.648
 35580,  2.074,  4.527, 38.025,  7.285,  0.615
 35640,  2.094,  4.817, 38.195,  7.577,  0.655
 35700,  2.124,  4.666, 38.927,  7.287,  0.651
 35760,  2.064,  4.714, 36.912,  7.269,  0.590
 35820,  2.116,  4.561, 37.119,  7.196,  0.671
 35880,  1.897,  4.579, 37.113,  6.499,  0.623
 35940,  1.987,  4.628, 35.418,  6.866,  0.552
 36000,  2.081,  4.674, 36.555,  7.007,  0.489
 36060,  2.054,  4.798, 37.400,  7.141,  0.493
 36120,  2.055,  4.381, 37.358,  7.349,  0.554
 36180,  2.102,  4.279, 37.267,  7.101,  0.461
 36240,  2.042,  4.681, 38.773,  6.981,  0.399
 36300,  2.038,  4.421, 39.063,  7.345,  0.400
 36360,  2.103,  4.761, 37.630,  7.170,  0.545
 36420,  2.075,  4.503, 36.834,  7.184,  0.287
 36480,  2.080,  4.886, 38.326,  6.723,  0.417
 36540,  2.093,  4.061, 39.206,  6.847,  0.620
 36600,  2.123,  4.111, 37.647,  6.756,  0.786
 36660,  2.096,  3.701, 37.885,  6.475,  0.771
 36720,  2.038,  3.501, 35.734,  6.210,  0.934
 36780,  2.041,  3.676, 36.290,  6.434,  0.727
 36840,  2.054,  3.718, 39.341,  6.204,  0.842
 36900,  2.027,  2.756, 39.414,  5.628,  0.889
 36960,  2.040,  3.096, 38.158,  5.167,  0.942
 37020,  1.995,  2.600, 37.866,  5.362,  0.980
 37080,  1.979,  2.695, 36.354,  5.203,  0.913
 37140,  1.910,  2.579, 36.163,  5.238,  0.981
 37200,  2.031,  2.984, 37.148,  5.315,  1.111
 37260,  2.019,  2.852, 36.119,  5.451,  1.171
 37320,  1.995,  2.750, 33.621,  5.432,  1.149
 37380,  1.994,  2.663, 33.187,  5.358,  1.025
 37440,  1.993,  2.940, 34.718,  5.183,  1.082
 37500,  1.976,  2.434, 33.412,  5.308,  1.090
 37560,  1.958,  2.458, 33.587,  5.211,  1.000
 37620,  1.966,  2.759, 32.645,  5.053,  1.026
 37680,  1.988,  2.318, 32.383,  5.139,  1.003
 37740,  1.940,  2.742, 28.233,  5.260,  0.793
 37800,  1.929,  2.649, 30.053,  5.017,  0.932
 37860,  1.966,  2.420, 29.437,  4.987,  1.030
 37920,  1.962,  2.495, 29.255,  5.029,  0.915
 37980,  1.954,  2.885, 29.042,  5.150,  0.949
 38040,  2.012,  2.921, 29.398,  5.538,  1.031
 38100,  1.999,  2.875, 28.848,  5.378,  1.054
 38160,  2.015,  2.981, 28.016,  5.450,  0.988
 38220,  1.973,  2.740, 28.034,  5.458,  1.095
 38280,  2.002,  2.789, 27.500,  5.337,  1.117
 38340,  1.946,  2.869, 27.494,  5.521,  1.109
 38400,  1.985,  2.853, 28.031,  5.490,  1.067
 38460,  1.967,  2.938, 27.177,  5.444,  0.999
 38520,  2.005,  2.639, 26.839,  5.412,  1.009
 38580,  2.011,  3.037, 25.833,  5.440,  1.040
 38640,  1.971,  2.657, 27.395,  5.316,  1.017
 38700,  1.895,  3.090, 26.351,  5.198,  0.963
 38760,  1.933,  2.844, 25.341,  5.206,  0.937
 38820,  1.926,  2.693, 25.351,  5.148,  1.011
 38880,  1.967,  2.671, 27.408,  5.428,  1.043
 38940,  1.987,  2.958, 27.398,  5.359,  1.029
 39000,  1.866,  2.690, 27.069,  5.361,  1.094
 39060,  1.939,  2.810, 27.058,  5.357,  1.058
 39120,  2.023,  2.929, 27.751,  5.414,  1.128
 39180,  1.993,  2.551, 27.544,  5.253,  1.086
 39240,  1.947,  2.892, 27.487,  5.435,  1.115
 39300,  1.972,  2.935, 28.374,  5.347,  1.137
 39360,  1.959,  2.866, 27.431,  5.052,  1.084
 39420,  1.920,  2.676, 27.907,  5.255,  1.116
 39480,  1.883,  2.877, 27.829,  5.125,  1.199
 39540,  1.982,  2.907, 26.948,  5.330,  1.126
 39600,  1.871,  2.598, 24.962,  5.251,  1.135
 39660,  1.845,  3.067, 25.929,  5.115,  1.174
 39720,  1.931,  2.502, 27.273,  5.237,  1.070
 39780,  1.918,  2.526, 26.726,  5.246,  1.119
 39840,  1.859,  2.740, 26.701,  5.213,  1.109
 39900,  1.877,  2.665, 26.284,  5.080,  1.070
 39960,  1.869,  2.621, 25.863,  4.984,  1.034
 40020,  1.916,  2.548, 25.835,  5.037,  1.031
 40080,  1.936,  2.397, 26.351,  5.107,  1.129
 40140,  1.887,  2.736, 26.209,  5.193,  1.012
 40200,  1.919,  2.577, 26.643,  5.143,  1.112
 40260,  1.955,  2.648, 26.584,  5.238,  1.112
 40320,  1.897,  2.703, 26.316,  5.053,  0.982
 40380,  1.943,  2.601, 26.529,  5.114,  1.093
 40440,  1.837,  2.547, 25.146,  4.914,  1.092
 40500,  1.819,  2.396, 25.088,  4.691,  0.999
 40560,  1.897,  2.511, 25.814,  4.931,  1.064
 40620,  1.910,  2.630, 26.288,  5.054,  1.082
 40680,  1.875,  2.279, 24.530,  5.080,  1.004
 40740,  1.786,  2.181, 24.827,  4.895,  1.069
 40800,  1.867,  2.496, 25.874,  4.850,  1.094
 40860,  1.871,  2.552, 25.602,  5.099,  1.103
 40920,  1.859,  2.634, 24.842,  4.853,  0.868
 40980,  1.883,  2.375, 25.618,  5.094,  0.950
 41040,  1.876,  2.127, 26.302,  5.041,  0.985
 41100,  1.837,  2.520, 26.720,  5.032,  1.102
 41160,  1.850,  2.673, 25.261,  5.024,  0.927
 41220,  1.854,  2.491, 26.081,  5.069,  0.966
 41280,  1.857,  2.439, 25.708,  4.907,  1.084
 41340,  1.932,  2.319, 26.020,  5.052,  1.034
 41400, -9999.000, -9999.000, -9999.000, -9999.000, -9999.000
 41460,  1.710,  2.234, 22.840,  4.809,  0.744
 41520,  1.773,  2.082, 23.660,  4.878,  0.892
 41580,  1.795,  2.334, 24.480,  4.770,  0.908
 41640,  1.835,  2.365, 25.446,  5.110,  1.046
 41700,  1.826,  2.162, 25.934,  4.954,  1.032
 41760,  1.812,  2.377, 24.811,  4.850,  0.989
 41820,  1.919,  2.418, 25.610,  4.991,  1.005
 41880,  1.901,  2.406, 25.615,  5.075,  0.986
 41940,  1.828,  2.301, 25.780,  4.977,  0.934
 42000,  1.850,  2.299, 25.736,  5.003,  0.963
 42060,  1.818,  2.177, 25.666,  4.853,  1.015
 42120,  1.828,  2.721, 25.409,  4.899,  0.931
 42180,  1.732,  2.385, 24.912,  4.789,  0.937
 42240,  1.791,  2.222, 25.674,  4.870,  1.004
 42300,  1.883,  2.393, 25.785,  4.968,  0.973
 42360,  1.847,  2.487, 26.113,  5.106,  1.027
 42420,  1.891,  2.591, 25.747,  4.781,  0.936
 42480,  1.920,  2.362, 24.757,  5.181,  1.040
 42540,  1.846,  2.439, 25.022,  5.152,  0.848
 42600,  1.843,  2.290, 26.144,  4.784,  0.905
 42660,  1.828,  2.368, 25.499,  4.894,  1.006
 42720,  1.760,  2.452, 23.981,  4.567,  0.919
 42780,  1.732,  2.516, 24.284,  4.556,  0.994
 42840,  1.835,  2.489, 25.282,  4.679,  0.988
 42900,  1.837,  2.543, 25.547,  4.933,  0.968
 42960,  1.781,  2.349, 23.952,  4.832,  0.970
 43020,  1.758,  2.444, 23.112,  4.771,  0.969
 43080,  1.747,  2.571, 24.650,  4.813,  0.955
 43140,  1.800,  2.184, 24.880,  4.720,  0.927
 43200,  1.867,  2.579, 23.995,  4.898,  1.060
 43260, -9999.000, -9999.000, -9999.000, -9999.000, -9999.000
 43320,  1.796,  2.491, 23.445,  4.501,  0.901
 43380,  1.827,  2.401, 24.715,  4.744,  0.921
 43440,  1.811,  2.323, 24.085,  4.798,  0.867
 43500,  1.905,  2.152, 23.656,  4.766,  1.030
 43560,  1.959,  2.342, 24.334,  5.050,  1.072
 43620,  1.982,  2.635, 24.970,  5.255,  1.127
 43680,  1.964,  2.501, 24.712,  4.906,  1.045
 43740,  1.901,  2.440, 24.077,  4.938,  0.925
 43800,  1.925,  2.566, 24.659,  5.094,  1.096
 43860,  1.810,  2.681, 25.008,  4.815,  1.071
 43920,  1.835,  2.589, 24.398,  4.774,  1.068
 43980,  1.875,  2.599, 24.045,  4.859,  0.936
 44040,  1.916,  2.503, 24.222,  4.752,  1.055
 44100,  1.870,  2.739, 25.092,  4.834,  0.917
 44160,  1.882,  2.828, 24.338,  4.819,  0.921
 44220,  1.927,  2.680, 24.485,  4.830,  0.937
 44280,  1.904,  2.823, 25.144,  4.960,  0.969
 44340,  1.903,  2.616, 24.711,  4.614,  0.965
 44400,  1.925,  2.580, 24.981,  4.747,  1.038
 44460,  1.942,  2.665, 24.371,  4.877,  1.045
 44520,  1.981,  2.706, 24.446,  4.954,  0.936
 44580,  2.004,  2.712, 24.967,  4.923,  1.090
 44640,  1.964,  2.825, 24.768,  4.993,  1.043
 44700,  1.957,  2.818, 24.745,  4.922,  1.050
 44760,  1.907,  2.587, 24.632,  4.768,  0.907
 44820,  1.944,  2.708, 24.687,  4.843,  0.953
 44880,  1.894,  2.530, 25.072,  4.777,  1.015
 44940,  1.870,  2.587, 24.586,  4.542,  0.937
 45000,  1.982,  2.807, 24.311,  4.600,  1.074
 45060,  1.932,  2.883, 23.579,  4.445,  0.723
 45120, -9999.000, -9999.000, -9999.000, -9999.000, -9999.000
 45180,  1.860,  2.560, 21.512,  4.281,  0.854
 45240,  1.797,  2.358, 21.842,  4.372,  0.948
 45300,  1.771,  2.393, 22.030,  4.239,  1.030
 45360,  1.748,  2.843, 21.530,  4.231,  0.914
 45420,  1.781,  2.571, 21.984,  4.327,  0.995
 45480,  1.860,  2.572, 21.763,  4.352,  0.957
 45540,  1.851,  2.558, 21.409,  4.436,  0.953
 45600,  1.832,  2.399, 21.714,  4.390,  0.969
 45660,  1.843,  2.713, 21.079,  4.199,  1.023
 45720,  1.789,  2.749, 21.857,  4.371,  1.087
 45780,  1.790,  2.606, 21.157,  4.289,  0.882
 45840,  1.750,  2.701, 21.401,  4.411,  1.020
 45900,  1.825,  2.554, 21.228,  4.492,  0.882
 45960,  1.823,  2.680, 21.828,  4.465,  0.897
 46020,  1.880,  2.638, 22.167,  4.431,  0.861
 46080,  1.831,  2.647, 21.929,  4.361,  0.930
 46140,  1.829,  2.613, 21.294,  4.402,  0.902
 46200,  1.833,  2.545, 21.888,  4.350,  0.881
 46260,  1.775,  2.758, 22.004,  4.371,  0.922
 46320,  1.792,  2.550, 20.887,  4.433,  0.877
 46380,  1.769,  2.317, 22.119,  4.345,  0.872
 46440,  1.746,  2.529, 21.047,  4.347,  0.811
 46500,  1.843,  2.327, 21.052,  4.376,  0.868
 46560,  1.790,  2.343, 21.372,  4.251,  0.946
 46620,  1.719,  2.251, 21.113,  4.009,  0.913
 46680,  1.713,  2.448, 20.560,  4.263,  0.822
 46740,  1.707,  2.262, 21.158,  4.245,  0.811
 46800,  1.734,  2.206, 21.061,  4.079,  0.924
 46860,  1.702,  2.264, 21.819,  4.087,  0.980
 46920,  1.704,  2.489, 20.851,  4.228,  1.054
 46980,  1.692,  2.006, 19.358,  3.875,  0.889
 47040,  1.702,  2.207, 20.189,  4.065,  0.762
 47100,  1.747,  2.327, 19.760,  4.200,  0.939
 47160,  1.765,  2.177, 19.728,  4.120,  0.817
 47220,  1.711,  2.354, 19.064,  4.006,  0.703
 47280,  1.762,  2.475, 19.168,  4.024,  0.650
 47340,  1.775,  2.359, 19.276,  4.157,  0.759
 47400,  1.752,  2.121, 18.378,  4.031,  0.718
 47460,  1.752,  2.110, 18.883,  4.146,  0.747
 47520,  1.726,  1.975, 19.485,  4.103,  0.746
 47580,  1.760,  2.071, 19.479,  3.883,  0.719
 47640,  1.714,  2.175, 18.744,  4.189,  0.797
 47700,  1.752,  2.091, 18.324,  4.043,  0.702
 47760,  1.793,  2.103, 19.001,  4.156,  0.734
 47820,  1.792,  2.158, 18.708,  4.185,  0.706
 47880,  1.784,  2.192, 17.944,  4.185,  0.735
 47940,  1.843,  2.135, 18.045,  4.229,  0.683
 48000,  1.769,  2.215, 18.868,  4.119,  0.789
 48060,  1.928,  2.588, 18.956,  4.452,  0.905
 48120, -9999.000, -9999.000, -9999.000, -9999.000, -9999.000
 48180,  2.028,  2.574, 17.023,  4.272,  0.969
 48240,  1.983,  3.102, 18.495,  4.509,  1.071
 48300,  2.061,  3.024, 19.634,  4.744,  0.932
 48360,  2.076,  3.118, 20.356,  4.706,  0.938
 48420,  2.089,  3.096, 20.268,  4.935,  1.135
 48480,  2.138,  2.963, 19.861,  4.858,  0.998
 48540,  2.148,  3.147, 19.197,  4.926,  1.057
 48600,  2.177,  3.257, 21.876,  5.154,  1.030
 48660,  2.147,  3.255, 21.143,  4.961,  1.031
 48720,  2.188,  3.110, 19.291,  5.198,  0.897
 48780,  2.349,  3.011, 20.246,  5.067,  0.915
 48840,  2.247,  3.632, 21.416,  5.188,  1.042
 48900,  2.249,  3.369, 21.689,  5.265,  1.005
 48960,  2.225,  3.766, 20.433,  5.128,  0.933
 49020,  2.367,  3.763, 20.646,  5.394,  0.935
 49080,  2.332,  3.535, 21.597,  5.259,  1.066
 49140,  2.344,  3.279, 21.376,  5.327,  0.993
 49200,  2.345,  3.759, 20.980,  5.326,  1.080
 49260,  2.366,  3.535, 20.520,  5.346,  1.116
 49320,  2.325,  3.982, 21.607,  5.198,  1.065
 49380,  2.288,  3.921, 21.303,  5.292,  0.987
 49440,  2.278,  4.343, 21.628,  5.166,  1.032
 49500,  2.255,  4.054, 21.607,  5.176,  0.925
 49560,  2.267,  4.185, 20.884,  5.276,  0.791
 49620,  2.295,  4.325, 21.583,  5.439,  0.918
 49680,  2.263,  4.307, 22.066,  5.084,  0.947
 49740,  2.315,  4.355, 22.099,  5.347,  1.004
 49800,  2.313,  4.301, 21.310,  5.213,  1.050
 49860,  2.389,  4.406, 22.521,  5.199,  1.025
 49920,  2.305,  3.873, 22.981,  5.204,  1.102
 49980,  2.422,  4.816, 24.653,  5.320,  1.125
 50040,  2.395,  4.650, 22.344,  5.001,  0.963
 50100,  2.355,  4.310, 22.848,  5.064,  1.113
 50160,  2.433,  4.797, 22.232,  5.227,  1.192
 50220,  2.492,  5.226, 21.714,  5.262,  1.097
 50280,  2.478,  5.518, 22.832,  5.403,  1.185
 50340,  2.480,  6.099, 23.187,  5.344,  1.223
 50400,  2.466,  5.734, 22.539,  5.301,  1.095
 50460,  2.492,  5.732, 21.937,  5.385,  1.119
 50520,  2.467,  5.812, 23.498,  5.030,  1.141
 50580,  2.482,  5.530, 22.757,  5.350,  1.080
 50640,  2.495,  5.488, 23.591,  5.478,  1.074
 50700,  2.489,  5.624, 22.302,  5.162,  1.098
 50760,  2.431,  5.729, 22.288,  5.279,  1.017
 50820,  2.524,  5.943, 22.202,  5.488,  1.019
 50880,  2.476,  6.270, 22.910,  5.532,  0.956
 50940,  2.556,  5.862, 22.400,  5.427,  1.122
 51000,  2.561,  6.040, 22.438,  5.120,  1.020
 51060,  2.523,  5.842, 22.768,  5.412,  0.982
 51120,  2.647,  6.240, 22.737,  5.621,  0.977
 51180,  2.614,  6.254, 22.986,  5.389,  1.153
 51240,  2.598,  5.811, 23.420,  5.512,  1.034
 51300,  2.665,  6.437, 24.664,  5.413,  1.106
 51360,  2.704,  6.914, 24.264,  5.836,  1.204
 51420,  2.702,  7.050, 23.884,  5.511,  1.501
 51480,  2.761,  7.118, 23.866,  5.537,  1.554
 51540,  2.751,  7.236, 23.969,  5.771,  1.896
 51600,  2.827,  6.987, 23.575,  5.747,  1.739
 51660,  2.769,  7.348, 24.251,  5.740,  1.840
 51720,  2.823,  7.219, 24.661,  5.624,  1.931
 51780,  2.780,  7.767, 24.768,  5.368,  1.941
 51840, -9999.000, -9999.000, -9999.000, -9999.000, -9999.000
 51900,  2.783,  7.283, 20.421,  5.547,  1.347
 51960,  2.781,  6.947, 21.571,  5.726,  1.492
 52020,  2.856,  7.429, 22.160,  5.436,  1.567
 52080,  2.865,  7.750, 24.535,  5.536,  1.507
 52140,  2.915,  8.002, 23.613,  5.441,  1.442
 52200,  3.005,  8.687, 22.611,  5.825,  1.254
 52260,  2.967,  8.318, 24.038,  5.758,  1.290
 52320,  3.016,  8.374, 23.818,  5.493,  1.245
 52380,  3.004,  8.528, 23.817,  5.871,  1.321
 52440,  3.063,  8.385, 24.158,  5.675,  1.280
 52500,  3.226,  9.237, 23.727,  5.710,  1.802
 52560,  3.130,  9.798, 26.191,  5.799,  2.316
 52620,  3.201, 10.629, 25.316,  5.759,  2.312
 52680,  3.217, 10.275, 24.501,  5.717,  2.501
 52740,  3.239, 10.733, 25.213,  5.739,  2.686
 52800,  3.258, 10.698, 24.606,  5.500,  2.559
 52860,  3.235, 10.936, 24.824,  5.579,  2.514
 52920,  3.243, 11.700, 23.592,  5.356,  2.470
 52980,  3.360, 11.751, 24.220,  5.464,  2.183
 53040,  3.391, 13.401, 26.199,  5.876,  2.063
 53100,  3.407, 12.836, 25.608,  5.659,  1.822
 53160,  3.558, 13.745, 25.643,  5.865,  1.650
 53220,  3.548, 13.919, 25.373,  5.495,  1.561
 53280,  3.641, 14.916, 25.427,  5.847,  1.555
 53340,  3.775, 15.441, 26.254,  5.899,  1.443
 53400,  3.790, 15.476, 25.729,  5.987,  1.338
 53460,  3.870, 16.790, 26.423,  5.895,  1.251
 53520,  3.845, 16.434, 25.413,  5.918,  1.363
 53580,  3.903, 16.780, 26.279,  5.880,  1.329
 53640,  3.939, 17.244, 26.895,  5.711,  1.232
 53700,  3.713, 16.078, 22.854,  5.646,  0.778
 53760,  3.892, 16.815, 23.750,  5.660,  1.135
 53820,  3.864, 16.524, 24.137,  5.275,  0.952
 53880,  3.974, 16.759, 25.253,  5.998,  1.163
 53940,  3.909, 17.123, 26.159,  5.960,  1.370
 54000,  4.092, 17.865, 26.082,  6.054,  2.266
 54060,  4.097, 16.961, 26.233,  5.888,  2.603
 54120,  4.147, 16.721, 25.974,  6.383,  1.878
 54180,  4.275, 17.480, 26.179,  6.340,  2.108
 54240,  4.263, 17.818, 26.850,  6.301,  2.157
 54300,  4.390, 18.492, 26.029,  6.241,  2.032
 54360,  4.379, 18.634, 27.366,  6.153,  1.995
 54420,  4.460, 19.977, 27.257,  6.230,  2.061
 54480,  4.567, 20.289, 27.893,  6.477,  2.041
 54540,  4.608, 20.062, 27.839,  6.400,  2.080
 54600,  4.650, 19.494, 27.667,  6.425,  2.212
 54660,  4.473, 19.361, 28.992,  6.407,  2.173
 54720,  4.549, 18.067, 27.570,  6.541,  2.460
 54780,  4.599, 18.470, 28.214,  6.393,  2.623
 54840,  4.629, 19.777, 28.142,  6.549,  2.901
 54900,  4.677, 20.112, 27.840,  6.611,  2.991
 54960,  4.688, 19.762, 26.017,  6.563,  3.105
 55020,  4.832, 19.494, 27.292,  6.683,  2.983
 55080,  4.768, 18.653, 27.288,  6.735,  2.995
 55140,  4.832, 19.983, 26.862,  6.514,  3.065
 55200,  4.840, 19.687, 26.085,  6.590,  3.279
 55260,  4.865, 19.546, 26.682,  6.724,  3.178
 55320,  4.913, 19.682, 27.265,  6.484,  3.315
 55380,  4.928, 19.994, 27.867,  6.809,  3.174
 55440,  4.960, 20.203, 27.356,  6.852,  3.036
 55500,  5.048, 20.474, 26.356,  6.981,  3.238
 55560,  4.647, 17.904, 23.580,  6.768,  2.525
 55620,  4.802, 19.664, 24.070,  6.346,  2.732
 55680,  4.801, 19.887, 25.569,  6.475,  2.593
 55740,  4.919, 20.568, 25.568,  6.673,  2.445
 55800,  4.918, 20.834, 26.453,  6.518,  2.203
 55860,  5.053, 21.369, 26.565,  6.396,  2.120
 55920,  5.016, 22.245, 26.174,  6.559,  1.770
 55980,  5.238, 23.597, 26.688,  6.467,  1.310
 56040,  5.479, 23.853, 25.441,  6.580,  0.978
 56100,  5.639, 24.339, 25.214,  6.987,  1.045
 56160,  5.940, 26.151, 27.320,  7.133,  1.190
 56220,  6.217, 28.767, 27.341,  7.079,  1.098
 56280,  6.466, 29.564, 26.816,  7.040,  1.239
 56340,  6.527, 29.982, 27.515,  7.050,  1.161
 56400,  6.592, 29.924, 27.446,  7.163,  1.226
 56460,  6.697, 29.805, 27.940,  7.097,  1.317
 56520,  6.889, 29.619, 29.212,  7.227,  1.393
 56580,  6.775, 30.117, 28.666,  6.832,  1.436
 56640,  7.090, 31.477, 29.098,  7.083,  1.412
 56700,  7.071, 31.000, 27.923,  7.208,  1.405
 56760,  7.136, 30.448, 28.769,  7.410,  1.387
 56820,  7.231, 30.595, 28.405,  7.255,  1.489
 56880,  7.264, 30.480, 28.502,  7.409,  1.415
 56940,  7.369, 30.854, 27.789,  7.499,  1.579
 57000,  7.419, 30.238, 27.721,  7.525,  1.637
 57060,  7.344, 28.693, 28.372,  7.585,  1.476
 57120,  7.534, 29.964, 28.962,  7.769,  1.557
 57180,  7.392, 29.742, 29.938,  7.626,  1.588
 57240,  7.509, 28.755, 27.883,  7.557,  1.598
 57300,  7.471, 29.233, 27.285,  7.504,  1.540
 57360,  7.438, 29.827, 26.248,  7.729,  1.793
 57420,  7.815, 29.907, 25.410,  7.136,  1.296
 57480,  7.796, 31.451, 27.675,  7.372,  1.535
 57540,  8.016, 32.378, 28.155,  7.738,  1.753
 57600,  8.267, 32.400, 28.498,  7.688,  1.516
 57660,  8.254, 32.284, 29.987,  7.631,  1.626
 57720,  8.337, 32.523, 29.122,  7.873,  1.619
 57780,  8.663, 33.043, 28.428,  7.827,  1.731
 57840,  8.621, 33.213, 30.729,  7.729,  1.733
 57900,  8.828, 34.604, 30.288,  7.927,  1.723
 57960,  8.804, 34.654, 29.611,  8.035,  1.657
 58020,  8.878, 34.374, 30.470,  7.911,  1.580
 58080,  8.600, 29.711, 30.236,  7.781,  1.585
 58140,  8.708, 30.061, 30.562,  8.098,  1.580
 58200,  8.661, 29.906, 30.872,  7.894,  1.610
 58260,  8.323, 26.529, 29.346,  7.825,  1.519
 58320,  7.621, 18.608, 29.591,  8.345,  1.215
 58380,  7.719, 17.556, 28.815,  7.927,  1.079
 58440,  7.582, 16.590, 29.639,  8.443,  0.919
 58500,  7.536, 16.321, 29.640,  8.335,  0.941
 58560,  7.527, 15.934, 31.093,  8.364,  1.060
 58620,  7.852, 18.920, 31.875,  8.225,  1.018
 58680,  7.817, 18.496, 30.952,  8.392,  0.991
 58740,  7.582, 15.863, 30.054,  8.424,  1.097
 58800,  7.470, 14.264, 30.056,  8.756,  1.076
 58860,  7.310, 14.683, 29.147,  8.621,  1.081
 58920,  7.354, 14.926, 30.618,  8.650,  1.083
 58980,  7.384, 13.620, 30.646,  8.727,  0.951
 59040,  7.200, 13.646, 31.035,  8.614,  0.984
 59100,  7.374, 13.351, 32.630,  8.787,  0.962
 59160,  7.800, 15.151, 32.311,  8.647,  0.830
 59220, -9999.000, -9999.000, -9999.000, -9999.000, -9999.000
 59280,  8.668, 18.588, 32.535,  8.232,  0.722
 59340,  7.893, 15.070, 30.016,  8.367,  0.840
 59400,  7.972, 14.926, 32.089,  8.741,  0.807
 59460,  7.498, 11.493, 31.358,  8.931,  0.818
 59520,  7.882, 13.733, 32.362,  8.946,  0.817
 59580,  7.593, 11.987, 31.919,  8.966,  0.931
 59640,  7.741, 12.224, 31.350,  9.065,  0.821
 59700,  7.675, 12.298, 31.282,  9.283,  0.808
 59760,  7.905, 13.287, 32.828,  9.242,  0.889
 59820,  8.598, 15.456, 30.132,  8.878,  0.899
 59880,  9.146, 17.257, 35.860,  9.146,  0.999
 59940,  8.723, 15.603, 34.805,  8.847,  0.947
 60000,  8.502, 14.343, 32.581,  8.897,  0.883
 60060,  8.389, 14.269, 32.244,  9.133,  0.766
 60120,  8.453, 14.541, 34.521,  8.817,  0.925
 60180,  8.259, 13.809, 33.883,  9.125,  0.939
 60240,  8.464, 14.356, 33.437,  9.254,  0.856
 60300,  8.405, 13.537, 33.367,  9.247,  0.817
 60360,  8.208, 12.621, 31.890,  8.869,  0.844
 60420,  8.173, 13.145, 31.349,  8.723,  0.926
 60480,  8.164, 12.770, 32.531,  8.835,  1.003
 60540,  8.215, 12.778, 32.604,  8.792,  1.018
 60600,  8.153, 13.189, 31.253,  9.028,  0.943
 60660,  8.529, 13.906, 31.617,  8.994,  0.957
 60720,  8.677, 14.225, 31.809,  8.993,  0.895
 60780,  8.636, 14.284, 32.267,  8.922,  0.828
 60840,  8.637, 14.297, 33.391,  9.030,  0.882
 60900,  8.710, 14.169, 34.487,  9.005,  1.108
 60960,  8.793, 14.687, 33.202,  8.894,  0.873
 61020,  8.914, 14.549, 32.243,  9.126,  0.852
 61080, -9999.000, -9999.000, -9999.000, -9999.000, -9999.000
 61140,  9.060, 15.317, 32.687,  8.823,  0.850
 61200,  9.196, 14.656, 33.474,  9.062,  0.822
 61260,  9.232, 14.863, 35.221,  8.824,  0.958
 61320,  9.324, 14.528, 33.968,  9.135,  0.870
 61380,  9.584, 14.543, 33.597,  9.055,  0.989
 61440,  9.651, 15.897, 35.993,  9.101,  0.842
 61500,  9.897, 16.375, 36.741,  8.958,  0.856
 61560, 10.161, 16.514, 36.169,  9.073,  0.933
 61620, 10.329, 15.996, 37.044,  9.499,  0.775
 61680, 10.249, 15.832, 36.816,  9.325,  0.920
 61740,  9.893, 15.892, 36.396,  9.060,  0.901
 61800, 10.051, 15.042, 36.768,  9.212,  0.928
 61860, 10.337, 15.811, 36.893,  9.073,  0.830
 61920, 10.088, 15.203, 36.675,  9.075,  0.946
 61980, 10.225, 15.961, 35.723,  9.669,  0.811
 62040, 10.323, 15.601, 33.973,  9.344,  0.928
 62100, 10.223, 15.622, 33.508,  9.552,  0.868
 62160, 10.179, 15.315, 32.900, 10.198,  0.759
 62220, 10.025, 14.553, 32.417,  9.710,  0.964
 62280, 10.067, 14.036, 32.625,  9.806,  0.872
 62340, 10.020, 14.580, 33.093,  9.944,  1.025
 62400, 10.114, 14.667, 31.886,  9.633,  0.856
 62460, 10.667, 15.591, 32.065,  9.968,  0.843
 62520, 10.586, 15.520, 32.972,  9.796,  0.814
 62580, 10.753, 15.233, 30.901,  9.896,  0.765
 62640, 10.298, 14.908, 34.007, 10.106,  0.855
 62700, 10.075, 14.108, 32.345, 10.218,  0.916
 62760, 10.356, 15.029, 30.409, 10.395,  0.992
 62820, 10.427, 14.969, 32.374, 10.136,  0.829
 62880, 10.444, 14.834, 31.165, 10.322,  0.909
 62940, -9999.000, -9999.000, -9999.000, -9999.000, -9999.000
 63000, 10.067, 14.485, 26.972,  9.677,  0.852
 63060, 10.045, 14.848, 28.833,  9.736,  1.033
 63120, 10.048, 14.304, 27.989, 10.143,  1.034
 63180, 10.066, 14.498, 29.221, 10.426,  1.082
 63240, 10.245, 14.590, 29.078, 10.160,  0.976
 63300, 10.398, 14.911, 29.078, 10.294,  1.008
 63360, 10.560, 15.001, 29.972, 10.368,  0.994
 63420, 10.629, 16.071, 29.737, 10.435,  1.063
 63480, 10.726, 15.301, 29.829, 10.830,  1.035
 63540, 10.568, 15.397, 29.414, 10.594,  0.942
 63600, 10.787, 15.850, 30.386, 10.671,  1.085
 63660, 11.065, 15.712, 29.853, 10.847,  0.885
 63720, 11.198, 16.184, 31.034, 10.826,  1.065
 63780, 10.683, 15.330, 29.549, 10.965,  0.916
 63840,  9.936, 14.499, 30.670, 10.521,  0.921
 63900,  9.851, 14.580, 28.887,  9.968,  0.988
 63960, 10.024, 15.009, 28.955, 10.219,  1.023
 64020, 10.186, 14.185, 27.284, 10.387,  1.047
 64080, 10.252, 14.686, 27.172, 10.490,  1.052
 64140, 10.232, 14.461, 27.997, 10.563,  0.940
 64200, 10.122, 14.266, 26.874, 10.321,  0.925
 64260, 10.006, 13.707, 26.767, 10.515,  0.920
 64320,  9.997, 13.929, 27.290, 10.421,  1.003
 64380, 10.173, 14.138, 27.509, 10.580,  1.074
 64440, 10.201, 14.259, 27.310, 10.653,  1.052
 64500, 10.505, 14.680, 28.376, 10.545,  1.018
 64560, 10.535, 14.705, 28.638, 10.932,  1.109
 64620, 10.490, 14.315, 28.232, 10.795,  0.900
 64680, 10.251, 14.393, 28.963, 10.359,  0.952
 64740, 10.333, 13.536, 27.947, 10.862,  1.007
 64800, 10.224, 13.938, 24.946,  9.960,  0.772
 64860, 10.431, 14.262, 27.665, 10.236,  0.984
 64920, 10.495, 14.652, 27.081, 10.656,  1.047
 64980,  9.984, 13.796, 28.066, 10.512,  1.053
 65040,  9.705, 13.253, 28.408, 10.592,  1.075
 65100,  9.400, 11.662, 27.212, 10.240,  0.977
 65160,  9.000, 11.677, 29.488,  9.774,  0.826
 65220,  8.560, 10.417, 27.434, 10.084,  0.821
 65280,  8.181,  9.474, 27.252,  9.485,  0.771
 65340,  7.817,  8.239, 27.306,  9.993,  0.786
 65400,  7.821,  9.034, 26.960, 10.013,  0.736
 65460,  7.918,  8.804, 27.028,  9.840,  0.610
 65520,  7.856,  8.227, 25.373,  9.607,  0.784
 65580,  7.505,  7.936, 27.206,  9.602,  0.663
 65640,  7.740,  8.022, 26.823,  9.399,  0.681
 65700,  7.621,  7.424, 25.989,  9.655,  0.720
 65760,  7.786,  7.609, 26.232,  9.791,  0.748
 65820,  7.883,  8.011, 25.045, 10.036,  0.710
 65880,  8.019,  7.785, 27.157, 10.253,  0.735
 65940,  8.115,  7.951, 26.943, 10.092,  0.537
 66000,  7.512,  7.181, 27.526,  9.767,  0.722
 66060,  7.601,  7.682, 25.564,  9.918,  0.729
 66120,  8.726,  9.377, 28.012, 10.779,  0.699
 66180,  8.730,  8.421, 27.920, 10.803,  0.690
 66240,  8.681,  8.305, 27.674, 10.888,  0.642
 66300,  9.043,  9.274, 28.769, 11.386,  0.542
 66360,  9.309,  9.299, 28.806, 11.389,  0.674
 66420,  8.983,  9.569, 28.715, 10.856,  0.747
 66480,  8.807,  8.927, 28.432, 11.168,  0.644
 66540,  9.020,  8.677, 28.584, 10.983,  0.692
 66600, -9999.000, -9999.000, -9999.000, -9999.000, -9999.000
 66660,  8.169,  9.025, 24.753, 10.746,  0.631
 66720,  7.455,  6.347, 24.219,  9.886,  0.499
 66780,  7.933,  6.996, 25.087, 10.461,  0.583
 66840,  7.866,  6.805, 24.940, 10.396,  0.584
 66900,  7.807,  6.846, 24.647, 10.497,  0.492
 66960,  7.733,  7.093, 25.419, 10.255,  0.429
 67020,  7.872,  7.663, 25.081, 10.654,  0.636
 67080,  7.931,  7.281, 25.627, 10.490,  0.541
 67140,  7.998,  7.802, 25.417, 10.627,  0.537
 67200,  8.167,  8.479, 25.290, 10.329,  0.536
 67260,  8.367,  8.348, 26.886, 10.461,  0.678
 67320,  8.510,  8.594, 26.499, 10.620,  0.663
 67380,  8.467,  8.097, 25.259, 10.609,  0.638
 67440,  8.845,  9.199, 26.412, 10.743,  0.699
 67500,  9.333,  8.458, 26.486, 11.049,  0.568
 67560,  9.237,  8.135, 26.562, 10.930,  0.656
 67620,  9.192,  7.985, 27.813, 10.796,  0.534
 67680,  9.148,  7.330, 26.881, 10.832,  0.444
 67740,  8.981,  7.532, 27.305, 11.065,  0.508
 67800,  9.047,  8.263, 27.661, 11.043,  0.512
 67860,  8.868,  7.861, 26.780, 10.631,  0.418
 67920,  8.790,  7.669, 26.854, 10.596,  0.531
 67980,  8.600,  6.794, 25.796, 10.622,  0.471
 68040,  8.634,  7.144, 26.280, 10.433,  0.509
 68100,  8.686,  7.007, 27.229, 10.650,  0.579
 68160,  8.793,  7.138, 26.604, 10.608,  0.641
 68220, 10.064,  8.495, 25.245, 10.550,  0.645
 68280, 11.017, 10.294, 27.885, 11.176,  0.618
 68340, 11.257, 10.123, 29.568, 11.204,  0.576
 68400, 11.237, 10.056, 29.039, 10.905,  0.494
 68460, -9999.000, -9999.000, -9999.000, -9999.000, -9999.000
 68520,  9.793, 10.243, 27.975,  9.970,  0.541
 68580,  8.913,  8.245, 27.334, 10.071,  0.507
 68640,  8.215,  6.657, 26.780,  9.622,  0.352
 68700,  8.285,  6.701, 26.170,  9.360,  0.473
 68760,  8.605,  6.874, 26.232,  9.688,  0.443
 68820,  8.495,  7.293, 26.233,  9.450,  0.529
 68880,  8.687,  7.466, 28.266,  9.457,  0.445
 68940,  8.610,  7.818, 25.990,  9.591,  0.500
 69000,  8.533,  7.548, 26.910,  9.720,  0.396
 69060,  8.049,  7.277, 26.972,  9.389,  0.452
 69120,  7.071,  6.263, 25.068,  9.096,  0.468
 69180,  6.850,  6.041, 26.351,  8.971,  0.417
 69240,  6.830,  5.800, 25.210,  9.103,  0.352
 69300,  6.968,  7.177, 26.187,  8.724,  0.408
 69360,  6.889,  7.960, 27.100,  8.673,  0.412
 69420,  6.731,  7.767, 27.771,  8.302,  0.474
 69480,  6.715,  7.407, 27.210,  8.161,  0.426
 69540,  6.563,  6.700, 27.452,  8.535,  0.532
 69600,  6.334,  6.203, 25.977,  8.196,  0.397
 69660,  6.481,  6.486, 27.547,  8.362,  0.398
 69720,  6.622,  7.130, 27.003,  8.412,  0.475
 69780,  6.956,  7.339, 26.322,  8.185,  0.441
 69840,  6.870,  7.363, 29.791,  8.244,  0.435
 69900,  7.435,  7.502, 30.652,  8.488,  0.493
 69960,  7.412,  8.365, 30.676,  8.067,  0.524
 70020,  7.404,  8.688, 31.691,  8.706,  0.596
 70080,  7.810,  8.366, 32.963,  8.512,  0.547
 70140,  8.722,  9.368, 36.903,  8.810,  0.499
 70200,  9.465, 10.176, 40.166,  9.297,  0.590
 70260,  9.590, 10.740, 39.224,  9.601,  0.456
 70320, -9999.000, -9999.000, -9999.000, -9999.000, -9999.000
 70380,  8.825, 11.041, 36.100,  8.457,  0.614
 70440,  8.862, 10.729, 36.968,  8.730,  0.548
 70500,  8.983, 10.703, 40.201,  8.740,  0.463
 70560,  9.087, 11.068, 40.634,  8.372,  0.565
 70620,  9.113, 10.788, 41.725,  8.274,  0.508
 70680,  8.572,  9.979, 40.879,  8.531,  0.568
 70740,  9.286, 11.008, 43.568,  8.460,  0.539
 70800,  9.271, 11.875, 43.713,  8.617,  0.657
 70860,  8.787, 11.858, 43.581,  8.200,  0.622
 70920,  8.607, 11.101, 43.563,  7.985,  0.577
 70980,  8.606, 10.564, 44.084,  7.872,  0.602
 71040,  9.504, 11.748, 45.824,  8.341,  0.642
 71100,  9.269, 12.047, 48.369,  8.497,  0.543
 71160,  9.326, 11.867, 50.269,  7.940,  0.563
 71220,  8.662, 12.243, 47.067,  8.045,  0.594
 71280,  8.867, 12.660, 49.066,  8.060,  0.624
 71340,  9.455, 13.824, 51.072,  8.169,  0.622
 71400,  9.960, 13.726, 53.836,  8.673,  0.673
 71460,  9.582, 13.085, 54.120,  8.269,  0.631
 71520,  9.094, 11.583, 52.408,  7.783,  0.558
 71580,  9.469, 11.841, 53.524,  8.114,  0.582
 71640,  9.857, 13.460, 55.773,  8.281,  0.648
 71700,  9.311, 13.047, 56.031,  8.508,  0.598
 71760,  8.942, 14.061, 53.542,  8.042,  0.636
 71820,  8.751, 12.737, 52.563,  7.952,  0.639
 71880,  8.848, 12.244, 52.075,  7.853,  0.626
 71940,  8.795, 12.214, 50.716,  7.879,  0.616
 72000,  8.863, 11.967, 50.590,  8.119,  0.611
 72060,  8.925, 11.764, 47.642,  7.825,  0.587
 72120,  8.548, 10.387, 45.970,  8.105,  0.634
 72180,  8.204,  8.752, 38.956,  7.449,  0.460
 72240,  8.514,  9.969, 39.532,  7.815,  0.565
 72300,  8.566, 11.203, 43.894,  7.875,  0.571
 72360,  8.681, 10.488, 45.318,  7.922,  0.600
 72420,  8.610,  9.949, 45.499,  7.699,  0.566
 72480,  8.265, 10.324, 44.760,  7.710,  0.573
 72540,  8.358, 10.491, 43.510,  7.518,  0.663
 72600,  8.271,  9.348, 43.033,  7.866,  0.636
 72660,  7.442,  8.996, 42.313,  7.394,  0.571
 72720,  7.181,  8.348, 40.842,  7.111,  0.534
 72780,  7.267,  8.997, 42.459,  7.359,  0.565
 72840,  7.614, 10.057, 43.838,  7.361,  0.525
 72900,  7.621, 10.114, 44.251,  7.316,  0.418
 72960,  7.601, 10.199, 46.090,  7.270,  0.608
 73020,  7.467, 11.018, 46.887,  7.670,  0.548
 73080,  7.466, 11.187, 43.546,  7.708,  0.535
 73140,  7.278, 11.015, 44.737,  7.610,  0.503
 73200,  7.019, 10.340, 44.035,  7.441,  0.609
 73260,  7.051,  9.460, 43.234,  7.082,  0.456
 73320,  7.089,  9.876, 47.143,  7.454,  0.526
 73380,  7.063, 10.439, 45.403,  7.344,  0.478
 73440,  6.865,  9.956, 45.379,  7.197,  0.431
 73500,  6.992, 10.287, 45.615,  7.207,  0.483
 73560,  6.836, 10.176, 45.688,  7.257,  0.523
 73620,  6.735, 11.060, 47.335,  6.967,  0.532
 73680,  6.023,  9.174, 43.681,  6.787,  0.506
 73740,  6.023,  8.079, 40.732,  6.102,  0.368
 73800,  6.417,  8.417, 43.824,  6.571,  0.435
 73860,  6.566,  9.064, 43.768,  6.807,  0.462
 73920,  6.836, 10.201, 44.575,  7.247,  0.550
 73980,  6.993, 10.945, 44.203,  6.892,  0.518
 74040,  6.512,  9.320, 38.170,  7.084,  0.547
 74100,  6.254,  9.851, 39.520,  6.715,  0.404
 74160,  5.772,  9.002, 39.738,  6.330,  0.364
 74220,  5.392,  7.888, 39.250,  6.106,  0.360
 74280,  5.432,  7.881, 39.045,  6.009,  0.213
 74340,  5.755,  8.831, 40.949,  5.966,  0.410
 74400,  5.758,  9.271, 43.235,  6.091,  0.220
 74460,  5.792,  9.786, 43.579,  6.097,  0.294
 74520,  5.695,  9.173, 42.598,  6.328,  0.333
 74580,  5.594,  7.446, 39.361,  6.424,  0.233
 74640,  5.200,  7.372, 38.738,  6.196,  0.271
 74700,  4.365,  5.631, 35.398,  5.793,  0.212
 74760,  5.745,  6.998, 37.300,  5.955,  0.223
 74820,  6.220,  7.976, 39.312,  6.334,  0.248
 74880,  6.486,  8.483, 42.254,  6.502,  0.254
 74940,  6.496,  8.174, 41.588,  6.445,  0.140
 75000,  6.515,  8.180, 44.377,  6.362,  0.290
 75060,  6.652,  9.057, 44.014,  6.926,  0.245
 75120,  6.940,  9.145, 45.043,  6.615,  0.219
 75180,  7.031,  9.070, 43.609,  7.148,  0.291
 75240,  7.104,  9.631, 44.177,  6.865,  0.240
 75300,  6.873,  9.440, 41.772,  6.724,  0.258
 75360,  6.760,  8.856, 42.126,  6.778,  0.254
 75420,  6.659,  8.815, 41.553,  6.624,  0.135
 75480,  6.896,  9.042, 42.259,  6.898,  0.079
 75540,  7.244,  9.737, 43.822,  7.009,  0.255
 75600,  7.085,  8.287, 42.861,  7.210,  0.176
 75660,  7.098,  8.681, 43.909,  7.063,  0.191
 75720,  7.124,  8.382, 42.578,  6.940,  0.131
 75780,  8.109,  9.431, 44.160,  7.260,  0.134
 75840,  8.785,  9.408, 44.019,  7.140,  0.262
 75900,  8.780,  8.686, 42.778,  7.466,  0.149
 75960,  9.007,  8.989, 43.707,  7.427,  0.101
 76020,  9.470,  9.974, 45.518,  7.532,  0.105
 76080, 10.285, 10.562, 50.888,  7.844,  0.026
 76140, 10.442, 10.969, 52.054,  8.125,  0.076
 76200, 10.299, 10.794, 52.586,  8.091,  0.098
 76260, 10.658, 10.529, 50.403,  8.426,  0.119
 76320, 11.106, 11.399, 52.147,  8.314,  0.188
 76380, 11.307, 11.652, 52.321,  8.392,  0.151
 76440, 12.054, 11.246, 51.234,  8.358,  0.121
 76500, 11.929, 10.558, 51.434,  8.382,  0.221
 76560, 11.897, 11.904, 50.939,  8.415,  0.183
 76620, 11.246, 11.472, 52.242,  8.364,  0.238
 76680, 10.599, 11.784, 52.754,  8.162,  0.124
 76740, 11.127, 11.655, 52.086,  7.846,  0.172
 76800, 11.597, 11.285, 54.473,  8.124,  0.247
 76860, 12.039, 11.970, 52.435,  8.155,  0.023
 76920, 12.374, 12.110, 53.450,  8.207,  0.224
 76980, 12.471, 12.576, 53.601,  8.267,  0.146
 77040, 12.610, 13.225, 54.425,  8.216,  0.168
 77100, 12.313, 12.398, 54.665,  8.176,  0.170
 77160, 12.225, 13.166, 56.770,  7.976,  0.311
 77220, 12.060, 13.286, 56.359,  8.391,  0.227
 77280, 11.362, 12.646, 57.352,  8.171,  0.209
 77340, 11.066, 13.221, 56.881,  8.441,  0.229
 77400, 11.293, 14.072, 56.770,  8.105,  0.252
 77460, 11.883, 14.717, 56.713,  7.944,  0.191
 77520, 11.914, 14.308, 55.052,  8.053,  0.280
 77580, 11.968, 13.251, 55.822,  8.141,  0.231
 77640, 11.930, 12.794, 56.005,  8.411,  0.079
 77700, -9999.000, -9999.000, -9999.000, -9999.000, -9999.000
 77760, 11.787, 10.896, 44.593,  7.714,  0.146
 77820, 11.739, 11.421, 48.486,  8.124,  0.114
 77880, 11.790, 11.918, 50.053,  8.039,  0.107
 77940, 11.851, 12.035, 50.961,  8.035,  0.245
 78000, 11.405, 12.196, 52.746,  8.085,  0.241
 78060, 11.133, 11.868, 54.934,  7.824,  0.223
 78120, 10.770, 11.728, 51.833,  7.668,  0.145
 78180, 10.746, 12.089, 53.001,  7.450,  0.229
 78240, 10.857, 11.192, 52.167,  7.675,  0.135
 78300, 10.960, 11.468, 55.411,  7.786,  0.233
 78360, 10.933, 11.927, 53.842,  7.727,  0.235
 78420, 10.270, 11.810, 53.801,  7.624,  0.225
 78480,  9.792, 11.161, 52.811,  7.249,  0.184
 78540,  9.628, 11.366, 51.430,  7.380,  0.200
 78600,  9.859, 11.861, 52.866,  7.354,  0.224
 78660, 10.265, 11.608, 54.416,  7.184,  0.096
 78720, 10.524, 11.525, 53.936,  7.408,  0.260
 78780, 10.759, 11.039, 54.277,  7.441,  0.233
 78840, 11.028,  9.952, 51.745,  7.249,  0.132
 78900, 11.123, 10.865, 53.730,  7.526,  0.159
 78960, 10.921, 11.019, 53.416,  7.370,  0.147
 79020, 10.987, 10.115, 51.757,  7.464,  0.223
 79080, 10.702, 10.969, 52.428,  7.356,  0.181
 79140, 10.267, 10.718, 52.406,  7.285,  0.231
 79200, 10.013, 10.861, 53.214,  7.225,  0.271
 79260,  9.823, 10.486, 53.811,  7.092,  0.159
 79320,  9.952, 10.126, 53.165,  7.129,  0.202
 79380, 10.197, 10.430, 51.112,  6.740,  0.235
 79440, 10.355, 10.819, 54.332,  6.908,  0.231
 79500, 10.417, 10.584, 53.336,  6.692,  0.242
 79560, -9999.000, -9999.000, -9999.000, -9999.000, -9999.000
 79620, 10.334, 10.758, 48.991,  7.333,  0.117
 79680, 10.289,  9.947, 50.534,  7.042,  0.160
 79740, 10.569, 10.400, 51.282,  7.155,  0.193
 79800, 10.393,  9.885, 51.500,  7.091,  0.194
 79860, 10.203,  8.969, 52.324,  6.858,  0.218
 79920, 10.330,  9.904, 51.000,  7.010,  0.266
 79980, 10.278, 10.201, 50.848,  6.802,  0.293
 80040, 10.481, 10.266, 51.644,  6.949,  0.219
 80100, 11.516,  9.674, 48.207,  6.830,  0.229
 80160, 11.516, 10.499, 50.823,  7.095,  0.276
 80220, 11.302, 10.693, 50.564,  7.056,  0.244
 80280, 11.624, 10.442, 49.504,  7.266,  0.343
 80340, 11.888, 10.349, 47.528,  7.068,  0.300
 80400, 11.723,  9.753, 47.062,  7.009,  0.366
 80460, 12.097,  9.206, 46.725,  7.270,  0.237
 80520, 11.918,  9.250, 45.059,  7.144,  0.283
 80580, 11.270,  9.263, 46.633,  7.160,  0.281
 80640, 10.933,  9.580, 49.544,  6.879,  0.244
 80700, 10.720,  9.809, 50.604,  6.602,  0.288
 80760, 10.682,  9.603, 50.565,  6.639,  0.396
 80820, 10.677, 10.102, 53.752,  6.657,  0.345
 80880, 10.584,  9.671, 51.767,  6.624,  0.401
 80940, 10.936,  9.911, 50.772,  6.418,  0.317
 81000, 10.739,  9.542, 50.618,  6.673,  0.372
 81060, 10.730,  9.405, 49.640,  6.331,  0.341
 81120, 10.879,  9.374, 50.384,  6.629,  0.371
 81180, 10.968,  9.658, 51.452,  6.408,  0.374
 81240, 10.776,  9.923, 51.382,  6.522,  0.436
 81300, 11.190,  9.263, 47.129,  6.412,  0.474
 81360, 11.338,  9.166, 46.966,  6.670,  0.487
 81420, -9999.000, -9999.000, -9999.000, -9999.000, -9999.000
 81480, 10.232,  8.487, 41.300,  6.436,  0.328
 81540, 10.650,  9.164, 45.549,  6.733,  0.366
 81600, 10.410,  9.630, 47.187,  6.304,  0.336
 81660, 10.131,  9.539, 46.827,  6.333,  0.264
 81720,  9.888,  9.327, 47.774,  6.062,  0.362
 81780, 10.141,  9.224, 47.543,  6.153,  0.433
 81840, 10.217,  8.884, 50.544,  6.585,  0.498
 81900, 10.386,  8.865, 51.683,  6.309,  0.369
 81960, 10.550,  9.190, 49.577,  6.404,  0.326
 82020, 10.862,  9.377, 52.846,  6.427,  0.308
 82080, 10.798,  9.478, 50.937,  6.530,  0.426
 82140, 10.929,  9.827, 52.792,  6.583,  0.385
 82200, 10.854,  9.438, 52.362,  6.600,  0.357
 82260, 10.923,  9.378, 52.911,  6.739,  0.310
 82320, 10.922,  9.644, 53.349,  6.357,  0.366
 82380, 10.611,  9.820, 53.439,  6.684,  0.318
 82440, 10.378,  9.554, 51.318,  6.215,  0.369
 82500, 10.148,  9.240, 53.564,  6.319,  0.404
 82560,  9.563,  9.801, 51.670,  6.323,  0.424
 82620,  9.129,  9.547, 49.595,  6.039,  0.411
 82680,  8.951,  9.608, 50.213,  6.273,  0.377
 82740,  9.155,  8.755, 49.260,  6.188,  0.445
 82800, 10.216,  8.993, 50.024,  6.475,  0.249
 82860,  9.774,  8.630, 48.525,  6.445,  0.353
 82920,  9.665,  9.009, 50.870,  6.372,  0.292
 82980,  9.983,  8.875, 51.453,  6.469,  0.377
 83040,  9.829,  8.980, 49.424,  6.291,  0.266
 83100,  9.905,  9.677, 51.483,  6.333,  0.349
 83160,  9.940,  9.234, 51.455,  6.349,  0.292
 83220,  9.968,  9.465, 52.818,  6.799,  0.394
 83280,  9.178,  9.802, 47.565,  6.283,  0.468
 83340,  9.152, 10.405, 47.754,  6.336,  0.295
 83400,  8.955, 10.431, 49.548,  6.341,  0.258
 83460,  8.753, 10.441, 51.041,  6.090,  0.304
 83520,  8.450,  9.987, 48.217,  5.982,  0.339
 83580,  8.480,  9.988, 49.877,  5.856,  0.343
 83640,  8.805,  9.911, 51.232,  5.962,  0.331
 83700,  9.063,  9.766, 54.326,  5.706,  0.323
 83760,  9.039,  9.388, 53.366,  6.018,  0.264
 83820,  9.143,  9.883, 55.082,  6.018,  0.315
 83880,  9.186, 10.121, 54.474,  6.200,  0.303
 83940,  9.075, 10.371, 54.021,  6.618,  0.305
 84000,  8.894,  9.975, 55.271,  6.022,  0.307
 84060,  8.842,  9.892, 56.726,  5.990,  0.320
 84120,  8.545, 10.700, 57.259,  6.020,  0.345
 84180,  8.279, 11.020, 55.271,  5.758,  0.324
 84240,  8.133, 11.210, 53.001,  5.666,  0.311
 84300,  8.325, 10.847, 57.068,  5.615,  0.320
 84360,  8.104, 10.908, 56.934,  5.822,  0.349
 84420,  8.165,  9.768, 55.403,  5.524,  0.315
 84480,  8.060,  9.494, 56.466,  5.352,  0.293
 84540,  8.109,  9.299, 56.337,  5.639,  0.251
 84600,  8.273,  9.645, 57.379,  5.341,  0.330
 84660,  8.278,  9.996, 58.071,  5.264,  0.330
 84720,  8.115, 10.610, 58.319,  5.832,  0.356
 84780,  7.799, 10.514, 57.065,  5.464,  0.340
 84840,  8.014, 10.918, 57.215,  5.434,  0.332
 84900,  8.098,  9.923, 57.381,  5.579,  0.363
 84960,  7.875, 10.429, 56.004,  5.519,  0.318
 85020,  7.750, 11.102, 56.243,  5.636,  0.421
 85080, -9999.000, -9999.000, -9999.000, -9999.000, -9999.000
 85140,  7.309, 10.569, 46.559,  5.041,  0.240
 85200,  7.680, 10.832, 50.714,  5.328,  0.344
 85260,  7.682, 10.547, 52.054,  5.448,  0.361
 85320,  7.634, 10.665, 54.968,  5.490,  0.208
 85380,  7.708, 10.749, 55.021,  5.427,  0.300
 85440,  7.603, 10.342, 57.272,  5.454,  0.234
 85500,  7.418, 10.001, 56.410,  5.328,  0.359
 85560,  7.404,  9.675, 58.055,  5.070,  0.313
 85620,  7.406,  9.717, 58.537,  5.235,  0.309
 85680,  7.598,  9.757, 58.858,  5.118,  0.195
 85740,  7.645,  9.887, 61.556,  5.361,  0.183
 85800,  7.736, 10.951, 62.256,  5.242,  0.321
 85860,  7.801, 10.644, 64.295,  5.414,  0.321
 85920,  7.738, 10.943, 65.721,  5.361,  0.261
 85980,  7.373, 10.176, 65.141,  5.115,  0.280
 86040,  7.280, 10.133, 63.705,  5.127,  0.286
 86100,  7.167, 10.535, 65.048,  5.409,  0.273
 86160,  6.907, 10.334, 62.722,  5.484,  0.272
 86220,  6.815, 10.339, 62.090,  5.203,  0.249
 86280,  6.779, 10.822, 62.537,  5.141,  0.268
 86340,  6.847, 10.429, 62.815,  5.075,  0.285
