34, 1001
Michael A Robinson, Chris Jernigan, Subi Thakali
NOAA ESRL Chemical Sciences Laboratory and CIRES, U. of Colorado
NOAA Iodide CIMS Instrument
USOS
1, 1
2024, 07, 16, 2024, 07, 17
0
starttime_UTC, seconds_past_midnight, seconds_of_day_since_00:00:00_UTC
1
1
-9999
HCOOH_NOAACIMS, pptv, Gas_HCOOH_InSitu_S_AVMR
1
N/A
18
PI_CONTACT_INFO: 325 Broadway, R/CSD 7, Boulder, Colorado 80305; michael.a.robinson@noaa.gov; chris.jernigan@noaa.gov;
PLATFORM: NOAA CSL Mobile Lab
LOCATION: SLC, Utah
ASSOCIATED_DATA: 1Hz data also available on request.
INSTRUMENT_INFO: NOAA I- ToF CIMS
DATA_INFO: Units: pptv
UNCERTAINTY: tbd
ULOD_FLAG: -7777
ULOD_VALUE: N/A
LLOD_FLAG: -8888
LLOD_VALUE: N/A
DM_CONTACT_INFO: Nathan Howard; nathan.h.howard@noaa.gov
PROJECT_INFO: USOS, summer 2024. https://csl.noaa.gov/groups/csl7/measurements/2024usos/
STIPULATIONS_ON_USE: only the USOS science team is allowed to use this data
OTHER_COMMENTS: Field data; Data are averaged to 1 minute intervals. Stationary data collected from a 10 ft tower on top of the mobile lab
REVISION: RA
RA: Preliminary Data; For in-field use only
starttime_UTC, HCOOH_NOAACIMS
0,929.382
60,922.893
120,981.910
180,812.039
240,930.766
300,864.748
360,905.686
420,940.373
480,1040.648
540,1014.177
600,1014.331
660,933.425
720,1047.230
780,1020.062
840,1069.211
900,1081.954
960,974.427
1020,952.630
1080,955.023
1140,1019.499
1200,970.546
1260,988.484
1320,968.479
1380,1056.424
1440,1052.985
1500,1027.778
1560,1070.495
1620,1005.146
1680,1008.719
1740,1011.762
1800,1031.319
1860,1088.189
1920,1050.976
1980,1071.548
2040,887.450
2100,1028.022
2160,1103.173
2220,1089.499
2280,1082.441
2340,1032.151
2400,1089.519
2460,1100.753
2520,1109.545
2580,1151.836
2640,1085.979
2700,1090.926
2760,1038.395
2820,1091.784
2880,1095.622
2940,1210.122
3000,1224.198
3060,1218.169
3120,1260.838
3180,1261.994
3240,1249.027
3300,1287.742
3360,1126.714
3420,1125.061
3480,1104.142
3540,1209.178
3600,764.024
3660,623.192
3720,625.041
3780,641.386
3840,610.684
3900,606.265
3960,720.274
4020,805.375
4080,800.774
4140,836.815
4200,872.095
4260,872.094
4320,826.928
4380,812.580
4440,831.091
4500,875.217
4560,900.331
4620,918.636
4680,999.018
4740,980.443
4800,957.553
4860,903.896
4920,984.123
4980,1037.689
5040,1071.196
5100,1134.875
5160,1127.777
5220,1141.634
5280,1144.697
5340,1135.495
5400,1239.564
5460,1201.226
5520,1064.794
5580,1144.250
5640,1142.622
5700,879.059
5760,1082.074
5820,1076.391
5880,1192.128
5940,1222.297
6000,1176.511
6060,1135.849
6120,1133.099
6180,1199.844
6240,1220.430
6300,1231.779
6360,1266.831
6420,1329.982
6480,1427.766
6540,1463.224
6600,3817.577
6660,4071.934
6720,3017.706
6780,2461.571
6840,8014.076
6900,5034.604
6960,1725.534
7020,1825.709
7080,1703.673
7140,1893.216
7200,1460.953
7260,4176.557
7320,5642.942
7380,7477.212
7440,8425.303
7500,1909.870
7560,7379.825
7620,12525.433
7680,6814.780
7740,5286.583
7800,3640.133
7860,2590.962
7920,2056.862
7980,4043.056
8040,7398.249
8100,2909.604
8160,9971.889
8220,4270.042
8280,2152.522
8340,1499.065
8400,1526.694
8460,1514.151
8520,1509.169
8580,1508.274
8640,1409.818
8700,1671.439
8760,4031.533
8820,2310.093
8880,1577.183
8940,3917.632
9000,9020.188
9060,4374.351
9120,3720.742
9180,4042.048
9240,3449.640
9300,3036.600
9360,2656.885
9420,15940.659
9480,10313.662
9540,7644.367
9600,4143.299
9660,3311.493
9720,2899.702
9780,2504.529
9840,2612.345
9900,3333.549
9960,5218.774
10020,4196.555
10080,2951.340
10140,10698.443
10200,4760.938
10260,3490.286
10320,3409.847
10380,4331.161
10440,2461.096
10500,4667.211
10560,10627.842
10620,15468.871
10680,8433.562
10740,4220.481
10800,3220.826
10860,3367.639
10920,2990.156
10980,2695.120
11040,2859.059
11100,3083.737
11160,2782.742
11220,2604.144
11280,2397.048
11340,3110.673
11400,6618.858
11460,8282.856
11520,5265.454
11580,5784.194
11640,3950.618
11700,4735.962
11760,4377.714
11820,5683.120
11880,5417.500
11940,3450.115
12000,3571.750
12060,3153.550
12120,3207.582
12180,3143.886
12240,3077.474
12300,3549.565
12360,4375.897
12420,4182.314
12480,3384.625
12540,3635.335
12600,3292.389
12660,3489.009
12720,3311.090
12780,3223.284
12840,3213.237
12900,3146.142
12960,2988.285
13020,2983.662
13080,-9999.000
13140,2890.716
13200,2918.700
13260,2938.562
13320,2925.590
13380,2935.989
13440,2946.552
13500,3010.684
13560,3030.945
13620,2972.549
13680,2985.445
13740,3050.423
13800,2946.746
13860,2904.783
13920,2889.976
13980,2973.352
14040,3030.750
14100,3155.501
14160,3331.555
14220,3268.454
14280,3214.550
14340,3106.983
14400,2654.848
14460,2676.927
14520,2668.770
14580,2673.975
14640,2570.098
14700,2628.287
14760,2618.038
14820,3444.220
14880,3202.519
14940,2362.139
15000,2558.816
15060,2601.814
15120,2608.014
15180,2715.344
15240,2899.560
15300,2891.336
15360,2886.806
15420,2886.118
15480,2833.783
15540,2873.567
15600,2881.281
15660,2915.674
15720,2993.717
15780,2929.265
15840,2956.697
15900,2882.843
15960,2798.031
16020,2794.672
16080,2725.166
16140,2719.828
16200,2698.756
16260,2706.216
16320,2724.542
16380,2720.439
16440,2711.602
16500,2705.571
16560,2803.544
16620,2807.126
16680,2814.834
16740,2702.731
16800,2429.955
16860,2763.283
16920,2790.455
16980,2725.925
17040,2758.595
17100,2746.639
17160,2823.796
17220,2738.443
17280,2804.279
17340,2753.502
17400,2721.410
17460,2704.595
17520,2794.654
17580,2802.236
17640,2849.375
17700,2722.182
17760,2715.205
17820,2737.986
17880,2716.955
17940,2719.573
18000,2653.086
18060,2611.313
18120,2664.406
18180,2611.475
18240,2542.852
18300,2639.271
18360,2670.883
18420,2720.580
18480,2700.249
18540,2740.035
18600,2760.856
18660,2608.844
18720,2783.182
18780,2740.972
18840,2779.312
18900,2763.082
18960,2804.250
19020,2705.336
19080,2824.150
19140,2746.632
19200,2651.807
19260,2637.331
19320,2626.656
19380,2664.667
19440,2588.571
19500,2600.201
19560,2567.059
19620,2600.384
19680,2589.514
19740,2516.166
19800,2575.690
19860,2677.544
19920,5356.352
19980,3975.119
20040,3086.833
20100,2993.627
20160,3315.217
20220,2826.077
20280,2677.470
20340,2908.498
20400,2815.396
20460,2919.413
20520,2495.631
20580,2713.182
20640,2768.413
20700,2925.739
20760,2927.915
20820,3042.724
20880,2882.887
20940,2684.840
21000,2698.515
21060,2879.833
21120,2798.608
21180,2811.694
21240,2910.667
21300,2692.044
21360,2698.133
21420,2843.596
21480,2617.385
21540,2563.125
21600,2635.058
21660,2731.082
21720,5726.916
21780,2957.358
21840,2792.394
21900,2825.650
21960,2733.785
22020,2769.197
22080,2776.906
22140,2887.669
22200,2774.945
22260,-9999.000
22320,-9999.000
22380,-9999.000
22440,2840.781
22500,2840.752
22560,2787.431
22620,2759.503
22680,2725.235
22740,2646.046
22800,2579.933
22860,2528.581
22920,2435.473
22980,2529.416
23040,2772.918
23100,2856.047
23160,2808.885
23220,2612.447
23280,2762.316
23340,2538.239
23400,2731.381
23460,2601.281
23520,2513.035
23580,3161.143
23640,2975.687
23700,2846.587
23760,3157.861
23820,3221.315
23880,3999.503
23940,2549.545
24000,2555.926
24060,2415.730
24120,1809.934
24180,2695.328
24240,2364.020
24300,2434.758
24360,2370.446
24420,2383.755
24480,2378.140
24540,2392.230
24600,2395.037
24660,2409.970
24720,2362.475
24780,2367.142
24840,2403.115
24900,2385.976
24960,2440.908
25020,2382.513
25080,2347.948
25140,2369.086
25200,2336.996
25260,2372.658
25320,2380.101
25380,2357.558
25440,2361.729
25500,2254.457
25560,2344.650
25620,2290.190
25680,2328.164
25740,2183.622
25800,2352.289
25860,2468.962
25920,2537.263
25980,2573.301
26040,2391.093
26100,2629.489
26160,2640.432
26220,2536.292
26280,2607.919
26340,2639.795
26400,2629.097
26460,2602.260
26520,2625.223
26580,2629.544
26640,2603.237
26700,2517.138
26760,2527.829
26820,2561.838
26880,2575.677
26940,2606.929
27000,2552.486
27060,2562.781
27120,2587.010
27180,2544.088
27240,2551.761
27300,2644.658
27360,2620.337
27420,2798.735
27480,2703.090
27540,2728.292
27600,2588.998
27660,2646.470
27720,2703.637
27780,2721.133
27840,2689.010
27900,2424.993
27960,2564.108
28020,2598.299
28080,2675.762
28140,2570.967
28200,2534.538
28260,2501.419
28320,2612.536
28380,2538.646
28440,2468.351
28500,2376.753
28560,2456.811
28620,2485.852
28680,2396.361
28740,2381.150
28800,2484.715
28860,2430.248
28920,2369.138
28980,2322.224
29040,2322.572
29100,2259.657
29160,2270.365
29220,2252.190
29280,2213.570
29340,2254.144
29400,2261.100
29460,2264.624
29520,2279.059
29580,2302.072
29640,2273.489
29700,2179.186
29760,2098.697
29820,2248.908
29880,2360.599
29940,2261.414
30000,2299.201
30060,2307.115
30120,2287.187
30180,2359.788
30240,2330.880
30300,2327.473
30360,2315.496
30420,2300.985
30480,2284.028
30540,2299.295
30600,2347.678
30660,2333.568
30720,2290.814
30780,2315.224
30840,2347.360
30900,2530.069
30960,2380.031
31020,2300.809
31080,2330.618
31140,2355.691
31200,2403.077
31260,2385.830
31320,2392.846
31380,2338.290
31440,2316.275
31500,2332.335
31560,-9999.000
31620,2222.806
31680,2384.151
31740,2360.393
31800,2348.399
31860,2347.493
31920,2405.663
31980,2345.701
32040,2370.260
32100,2419.255
32160,2316.219
32220,2363.520
32280,2366.570
32340,2421.301
32400,2443.817
32460,2420.354
32520,2397.544
32580,2394.037
32640,2367.123
32700,2367.166
32760,2413.226
32820,2434.301
32880,2358.489
32940,2337.226
33000,2387.362
33060,2414.941
33120,2395.483
33180,2421.804
33240,2419.098
33300,2397.930
33360,-9999.000
33420,-9999.000
33480,-9999.000
33540,-9999.000
33600,-9999.000
33660,2395.511
33720,2364.378
33780,2416.018
33840,2462.679
33900,2400.103
33960,2372.710
34020,2358.838
34080,2440.232
34140,2510.818
34200,2473.598
34260,2517.352
34320,2529.749
34380,2506.660
34440,2527.531
34500,2578.710
34560,2559.214
34620,2388.199
34680,2437.357
34740,2435.815
34800,2503.202
34860,2509.939
34920,2476.784
34980,2407.874
35040,2428.968
35100,2599.064
35160,2744.145
35220,2788.386
35280,2272.072
35340,2665.028
35400,2757.478
35460,2780.082
35520,2471.262
35580,2451.206
35640,2363.839
35700,2390.474
35760,2400.894
35820,2476.804
35880,2650.322
35940,2508.427
36000,2620.078
36060,2623.133
36120,2584.010
36180,2424.426
36240,2422.817
36300,2406.107
36360,2590.702
36420,2668.854
36480,2491.108
36540,2337.308
36600,2338.843
36660,2396.158
36720,2421.085
36780,2372.411
36840,2338.154
36900,2301.029
36960,2318.205
37020,2410.789
37080,2379.274
37140,2166.243
37200,2346.521
37260,2359.836
37320,2418.697
37380,2431.612
37440,2348.000
37500,2392.213
37560,2490.145
37620,2538.131
37680,2573.906
37740,2526.771
37800,2512.257
37860,2640.603
37920,2814.433
37980,2760.665
38040,2650.860
38100,2655.516
38160,2863.256
38220,2741.631
38280,2780.914
38340,2678.470
38400,2549.947
38460,2528.736
38520,2649.619
38580,2627.546
38640,2517.782
38700,2556.881
38760,3307.568
38820,2932.191
38880,4290.683
38940,-9999.000
39000,3326.454
39060,4203.062
39120,3143.366
39180,3369.738
39240,3102.985
39300,3098.222
39360,2980.767
39420,2749.777
39480,2886.794
39540,2756.832
39600,2693.660
39660,2647.767
39720,2624.310
39780,2651.944
39840,2623.983
39900,2596.293
39960,2620.397
40020,2709.450
40080,2655.390
40140,2662.745
40200,2517.492
40260,2605.541
40320,2595.946
40380,2595.280
40440,2562.805
40500,2496.791
40560,2523.520
40620,2635.838
40680,2590.108
40740,-9999.000
40800,-9999.000
40860,-9999.000
40920,-9999.000
40980,2558.785
41040,2552.597
41100,2534.342
41160,2577.615
41220,2609.851
41280,2585.020
41340,2731.339
41400,2776.670
41460,2989.629
41520,2830.112
41580,2810.866
41640,2754.901
41700,2592.473
41760,2612.233
41820,2662.250
41880,2616.061
41940,2620.161
42000,2671.801
42060,2706.533
42120,2724.911
42180,2755.180
42240,2733.533
42300,2766.115
42360,2708.957
42420,2712.333
42480,2760.891
42540,2799.119
42600,-9999.000
42660,-9999.000
42720,-9999.000
42780,-9999.000
42840,2699.631
42900,2709.256
42960,2626.387
43020,2605.671
43080,2612.495
43140,2624.357
43200,2634.421
43260,2633.453
43320,2588.334
43380,2642.586
43440,2558.703
43500,2544.910
43560,2589.035
43620,2869.747
43680,2861.959
43740,2920.795
43800,2690.803
43860,2794.487
43920,2922.851
43980,2901.718
44040,2589.814
44100,2616.414
44160,2659.323
44220,2756.242
44280,2799.424
44340,2974.527
44400,2811.196
44460,2745.433
44520,2484.734
44580,2681.931
44640,2758.552
44700,2621.050
44760,2652.893
44820,2667.722
44880,2725.847
44940,2738.152
45000,2569.134
45060,2572.692
45120,2520.430
45180,2548.239
45240,2674.462
45300,2678.580
45360,2588.293
45420,2512.653
45480,2503.236
45540,2553.237
45600,2620.456
45660,2517.747
45720,2505.638
45780,2585.494
45840,2633.618
45900,2590.312
45960,2613.486
46020,2678.446
46080,2711.732
46140,2736.067
46200,2713.525
46260,2688.298
46320,2702.206
46380,2563.135
46440,2818.859
46500,2876.496
46560,2813.366
46620,2804.436
46680,2866.782
46740,2791.908
46800,3725.805
46860,3692.009
46920,3326.003
46980,3140.173
47040,2981.001
47100,2983.758
47160,2827.988
47220,2638.852
47280,2718.516
47340,2702.625
47400,2571.990
47460,2553.311
47520,2494.331
47580,2503.382
47640,2450.353
47700,2382.021
47760,2370.581
47820,2412.043
47880,2410.435
47940,2419.060
48000,2375.494
48060,2330.731
48120,2319.842
48180,2231.324
48240,2211.363
48300,2287.943
48360,2233.982
48420,2227.627
48480,2259.042
48540,2298.932
48600,2274.127
48660,2267.666
48720,2243.483
48780,2266.294
48840,2285.516
48900,2252.353
48960,2237.719
49020,2201.136
49080,2180.564
49140,2182.470
49200,2232.814
49260,2244.703
49320,2252.334
49380,2206.421
49440,2278.352
49500,2303.946
49560,2355.943
49620,2344.690
49680,2409.245
49740,2427.448
49800,2456.999
49860,2508.212
49920,2565.593
49980,-9999.000
50040,-9999.000
50100,-9999.000
50160,-9999.000
50220,2618.519
50280,2659.803
50340,2584.481
50400,2613.314
50460,2630.719
50520,2562.642
50580,2528.826
50640,2497.437
50700,2451.538
50760,2551.345
50820,2557.842
50880,2494.156
50940,2448.032
51000,2467.013
51060,2375.221
51120,2342.786
51180,2353.237
51240,2428.483
51300,2472.564
51360,2536.974
51420,2546.569
51480,2489.260
51540,2475.600
51600,2420.330
51660,2391.934
51720,2480.914
51780,2484.528
51840,2406.035
51900,2402.135
51960,2384.758
52020,2482.060
52080,2574.354
52140,2490.019
52200,2531.254
52260,2546.206
52320,2572.094
52380,2580.474
52440,2620.541
52500,2577.901
52560,2441.699
52620,2467.116
52680,2572.525
52740,2661.736
52800,2673.278
52860,2746.386
52920,2767.907
52980,2817.414
53040,2691.840
53100,2709.661
53160,2552.698
53220,2736.488
53280,2804.847
53340,2846.471
53400,2782.024
53460,2646.925
53520,2700.782
53580,2691.032
53640,2653.752
53700,2640.246
53760,2634.750
53820,2647.772
53880,2637.833
53940,2660.290
54000,2710.293
54060,2659.200
54120,2676.247
54180,2694.508
54240,2662.706
54300,2698.412
54360,2672.875
54420,2758.795
54480,2666.508
54540,2687.598
54600,2610.998
54660,2609.425
54720,2627.704
54780,2600.362
54840,2666.113
54900,2585.355
54960,2528.107
55020,2373.152
55080,2496.905
55140,2470.961
55200,2476.651
55260,2512.527
55320,2541.702
55380,2522.505
55440,2586.146
55500,2760.051
55560,2737.318
55620,2623.510
55680,2474.950
55740,2455.485
55800,2437.668
55860,2516.646
55920,2581.023
55980,3416.559
56040,2630.581
56100,2387.319
56160,2362.993
56220,2348.380
56280,2341.384
56340,2629.808
56400,2482.297
56460,2675.255
56520,2468.822
56580,2383.929
56640,2466.081
56700,2354.125
56760,2471.282
56820,2346.680
56880,2084.445
56940,2086.967
57000,1898.957
57060,2001.463
57120,2031.841
57180,2083.487
57240,2214.816
57300,2290.920
57360,2232.219
57420,2214.823
57480,2185.833
57540,2135.872
57600,2107.250
57660,2118.790
57720,2160.481
57780,2288.265
57840,2233.144
57900,2355.169
57960,2409.234
58020,2208.201
58080,2170.191
58140,2014.959
58200,2199.906
58260,2189.393
58320,2118.661
58380,2203.783
58440,2315.520
58500,2296.257
58560,2531.228
58620,2310.586
58680,2053.699
58740,2373.838
58800,2142.110
58860,2112.224
58920,2102.851
58980,2584.058
59040,2252.538
59100,2272.402
59160,2137.547
59220,2078.033
59280,1993.180
59340,2142.393
59400,2100.929
59460,2013.573
59520,2062.858
59580,2206.395
59640,2034.387
59700,2176.050
59760,1929.813
59820,1995.561
59880,1923.189
59940,1911.207
60000,1887.621
60060,1980.369
60120,2043.213
60180,2017.080
60240,2039.479
60300,1902.497
60360,-9999.000
60420,-9999.000
60480,-9999.000
60540,-9999.000
60600,-9999.000
60660,-9999.000
60720,1816.599
60780,1842.486
60840,1897.896
60900,1903.993
60960,1845.241
61020,1918.313
61080,1964.855
61140,2182.337
61200,2208.499
61260,2134.783
61320,2057.984
61380,1971.927
61440,2086.601
61500,1914.617
61560,1766.112
61620,1767.139
61680,1709.742
61740,1748.808
61800,1764.492
61860,1740.227
61920,1739.463
61980,1681.855
62040,1717.571
62100,1676.091
62160,1691.983
62220,1663.322
62280,1695.687
62340,1648.087
62400,1505.480
62460,1667.833
62520,1684.224
62580,1635.915
62640,1686.202
62700,1832.413
62760,1711.000
62820,1723.472
62880,1882.991
62940,1896.576
63000,1720.624
63060,1740.906
63120,1754.406
63180,1703.692
63240,1784.231
63300,1882.875
63360,1897.320
63420,1728.593
63480,1639.879
63540,1697.730
63600,1667.835
63660,1732.387
63720,1723.093
63780,1761.917
63840,1729.158
63900,1890.178
63960,2164.317
64020,2068.721
64080,2000.363
64140,1834.657
64200,1711.784
64260,1562.118
64320,1924.722
64380,1750.649
64440,1682.313
64500,1878.356
64560,1786.693
64620,1785.875
64680,2045.010
64740,1818.925
64800,1649.506
64860,1677.821
64920,1665.494
64980,1703.529
65040,2085.381
65100,1897.101
65160,1844.324
65220,1690.340
65280,1681.133
65340,1913.233
65400,1817.315
65460,1705.538
65520,1736.547
65580,1802.272
65640,1874.209
65700,1879.841
65760,1734.064
65820,1689.173
65880,1652.594
65940,1663.391
66000,1676.458
66060,1636.045
66120,1501.219
66180,1713.237
66240,1728.682
66300,1872.606
66360,1815.833
66420,1739.799
66480,1701.128
66540,1796.685
66600,1728.882
66660,1741.877
66720,1668.329
66780,1719.208
66840,1606.588
66900,1594.549
66960,1706.191
67020,1553.227
67080,1568.645
67140,1557.417
67200,1539.955
67260,1595.046
67320,1683.979
67380,1640.799
67440,1612.375
67500,1622.979
67560,1675.305
67620,1609.290
67680,1631.532
67740,1687.160
67800,1716.940
67860,1687.277
67920,-9999.000
67980,-9999.000
68040,-9999.000
68100,-9999.000
68160,-9999.000
68220,-9999.000
68280,1645.239
68340,1693.052
68400,1625.136
68460,1621.688
68520,1590.091
68580,1788.157
68640,1719.626
68700,1685.595
68760,1898.335
68820,1919.754
68880,2145.437
68940,1915.909
69000,1866.769
69060,1867.927
69120,1881.120
69180,1798.810
69240,1838.923
69300,1881.893
69360,1893.042
69420,1720.686
69480,1748.937
69540,1659.156
69600,1679.508
69660,1734.386
69720,-9999.000
69780,-9999.000
69840,-9999.000
69900,1812.802
69960,1718.385
70020,1800.062
70080,1772.237
70140,1887.210
70200,1815.927
70260,1830.284
70320,1787.183
70380,1690.046
70440,1568.031
70500,1713.484
70560,1747.664
70620,1748.987
70680,1721.565
70740,1810.494
70800,1786.829
70860,1725.078
70920,1654.426
70980,1903.140
71040,1673.978
71100,1773.768
71160,1823.899
71220,1720.162
71280,1883.574
71340,1840.812
71400,1758.571
71460,1834.302
71520,1851.969
71580,-9999.000
71640,-9999.000
71700,-9999.000
71760,1759.017
71820,1623.389
71880,1673.385
71940,1722.645
72000,1661.123
72060,1635.721
72120,1552.447
72180,1509.122
72240,1511.883
72300,1594.769
72360,1677.759
72420,1576.673
72480,1571.905
72540,1678.388
72600,1528.261
72660,1526.953
72720,1526.172
72780,1629.998
72840,1765.579
72900,1716.794
72960,1626.626
73020,1650.045
73080,1559.198
73140,1549.185
73200,1536.808
73260,1616.927
73320,1705.592
73380,1706.222
73440,1606.283
73500,1331.533
73560,1499.247
73620,1506.483
73680,1595.815
73740,1670.840
73800,1580.141
73860,1504.104
73920,1560.016
73980,1495.842
74040,1558.683
74100,1554.480
74160,1681.755
74220,1688.452
74280,1664.024
74340,1583.573
74400,1532.568
74460,1523.341
74520,1589.058
74580,1632.811
74640,1608.332
74700,1585.535
74760,1561.735
74820,1487.504
74880,1537.893
74940,1564.152
75000,1626.341
75060,1612.261
75120,1568.286
75180,1576.357
75240,-9999.000
75300,-9999.000
75360,-9999.000
75420,-9999.000
75480,-9999.000
75540,1470.240
75600,1494.571
75660,1510.948
75720,1489.699
75780,1434.711
75840,1487.546
75900,1506.486
75960,1411.623
76020,1402.796
76080,1422.116
76140,1454.361
76200,1380.489
76260,1392.684
76320,1405.767
76380,1437.000
76440,1418.657
76500,1423.178
76560,1387.992
76620,1324.232
76680,1325.859
76740,1378.598
76800,1275.314
76860,1299.351
76920,1310.565
76980,1363.938
77040,1416.888
77100,1334.956
77160,1175.433
77220,1167.619
77280,1258.974
77340,1316.929
77400,1379.613
77460,1448.736
77520,1305.648
77580,1292.432
77640,-9999.000
77700,-9999.000
77760,-9999.000
77820,-9999.000
77880,-9999.000
77940,-9999.000
78000,-9999.000
78060,-9999.000
78120,-9999.000
78180,-9999.000
78240,-9999.000
78300,-9999.000
78360,-9999.000
78420,-9999.000
78480,452.426
78540,470.408
78600,460.637
78660,451.847
78720,481.035
78780,480.378
78840,500.921
78900,492.590
78960,491.369
79020,401.960
79080,397.370
79140,435.663
79200,460.189
79260,482.962
79320,510.496
79380,489.929
79440,474.973
79500,485.156
79560,495.650
79620,485.186
79680,483.817
79740,522.746
79800,502.871
79860,470.450
79920,484.021
79980,473.701
80040,487.526
80100,489.380
80160,468.332
80220,452.614
80280,433.128
80340,427.244
80400,434.540
80460,450.413
80520,439.502
80580,456.979
80640,444.171
80700,447.780
80760,460.792
80820,454.529
80880,370.401
80940,394.700
81000,422.109
81060,459.629
81120,471.157
81180,467.066
81240,441.921
81300,472.731
81360,454.570
81420,495.316
81480,493.152
81540,488.430
81600,442.135
81660,438.632
81720,457.929
81780,477.628
81840,464.013
81900,464.799
81960,456.627
82020,469.559
82080,459.374
82140,457.910
82200,449.074
82260,446.334
82320,416.358
82380,420.456
82440,426.467
82500,407.294
82560,392.658
82620,395.713
82680,395.563
82740,425.560
82800,400.933
82860,384.101
82920,405.314
82980,409.695
83040,387.666
83100,382.615
83160,365.973
83220,377.197
83280,402.823
83340,402.605
83400,368.274
83460,385.943
83520,363.177
83580,371.459
83640,378.674
83700,376.577
83760,380.283
83820,392.565
83880,407.411
83940,410.056
84000,418.293
84060,392.267
84120,398.018
84180,431.383
84240,429.727
84300,457.128
84360,408.367
84420,393.169
84480,375.614
84540,366.653
84600,372.818
84660,405.039
84720,406.423
84780,436.057
84840,430.825
84900,456.777
84960,457.256
85020,411.364
85080,396.800
85140,400.350
85200,414.142
85260,345.138
85320,387.463
85380,404.836
85440,410.768
85500,387.069
85560,399.541
85620,399.538
85680,377.393
85740,370.144
85800,398.709
85860,380.876
85920,379.698
85980,374.263
86040,398.154
86100,404.685
86160,424.351
86220,442.828
86280,440.964
86340,470.634
