37, 1001
Michael A Robinson, Chris Jernigan, Subi Thakali
NOAA ESRL Chemical Sciences Laboratory and CIRES, U. of Colorado
NOAA Iodide CIMS Instrument
USOS
1, 1
2024, 08, 11, 2024, 08, 13
1
starttime_UTC, seconds_past_midnight, seconds_of_day_since_00:00:00_UTC
5
1, 1, 1, 1, 1
-9999, -9999, -9999, -9999, -9999
C4H7NO5_NOAACIMS, pptv, Gas_C4H7NO5_InSitu_S_AVMR, 
ISOPN_NOAACIMS, pptv, Gas_ISOPN_InSitu_S_AVMR, 
C5H10O3_NOAACIMS, pptv, Gas_C5H10O3_InSitu_S_AVMR, 
C5H9NO5_NOAACIMS, pptv, Gas_C5H9NO5_InSitu_S_AVMR, 
C10H17NO4_NOAACIMS, pptv, Gas_C10H17NO4_InSitu_S_AVMR, 
0
18
PI_CONTACT_INFO: 325 Broadway, R/CSD 7, Boulder, Colorado 80305; michael.a.robinson@noaa.gov; chris.jernigan@noaa.gov;
PLATFORM: NOAA CSL Mobile Lab
LOCATION: SLC, Utah
ASSOCIATED_DATA: 1Hz data also available on request.
INSTRUMENT_INFO: NOAA I- ToF CIMS
DATA_INFO: All data in parts per trillion by volume (pptv). 1 Hz data is available upon request.
UNCERTAINTY: TBD
ULOD_FLAG: -7777
ULOD_VALUE: N/A
LLOD_FLAG: -8888
LLOD_VALUE: N/A
DM_CONTACT_INFO: Nathan Howard; nathan.h.howard@noaa.gov
PROJECT_INFO: USOS, summer 2024. https://csl.noaa.gov/groups/csl7/measurements/2024usos/
STIPULATIONS_ON_USE: Users are strongly encouraged to contact the PI for proper data usage.
OTHER_COMMENTS: 
REVISION: RA
RA: Preliminary Data; For in-field use only
starttime_UTC, C4H7NO5_NOAACIMS, ISOPN_NOAACIMS, C5H10O3_NOAACIMS, C5H9NO5_NOAACIMS, C10H17NO4_NOAACIMS
     0, -9999.000, -9999.000, -9999.000, -9999.000, -9999.000
    60, -9999.000, -9999.000, -9999.000, -9999.000, -9999.000
   120, -9999.000, -9999.000, -9999.000, -9999.000, -9999.000
   180, -9999.000, -9999.000, -9999.000, -9999.000, -9999.000
   240, -9999.000, -9999.000, -9999.000, -9999.000, -9999.000
   300, -9999.000, -9999.000, -9999.000, -9999.000, -9999.000
   360, -9999.000, -9999.000, -9999.000, -9999.000, -9999.000
   420, -9999.000, -9999.000, -9999.000, -9999.000, -9999.000
   480, -9999.000, -9999.000, -9999.000, -9999.000, -9999.000
   540, -9999.000, -9999.000, -9999.000, -9999.000, -9999.000
   600, -9999.000, -9999.000, -9999.000, -9999.000, -9999.000
   660, -9999.000, -9999.000, -9999.000, -9999.000, -9999.000
   720, -9999.000, -9999.000, -9999.000, -9999.000, -9999.000
   780, -9999.000, -9999.000, -9999.000, -9999.000, -9999.000
   840, -9999.000, -9999.000, -9999.000, -9999.000, -9999.000
   900, -9999.000, -9999.000, -9999.000, -9999.000, -9999.000
   960, -9999.000, -9999.000, -9999.000, -9999.000, -9999.000
  1020, -9999.000, -9999.000, -9999.000, -9999.000, -9999.000
  1080, -9999.000, -9999.000, -9999.000, -9999.000, -9999.000
  1140, -9999.000, -9999.000, -9999.000, -9999.000, -9999.000
  1200, -9999.000, -9999.000, -9999.000, -9999.000, -9999.000
  1260, -9999.000, -9999.000, -9999.000, -9999.000, -9999.000
  1320, -9999.000, -9999.000, -9999.000, -9999.000, -9999.000
  1380, -9999.000, -9999.000, -9999.000, -9999.000, -9999.000
  1440, -9999.000, -9999.000, -9999.000, -9999.000, -9999.000
  1500, -9999.000, -9999.000, -9999.000, -9999.000, -9999.000
  1560, -9999.000, -9999.000, -9999.000, -9999.000, -9999.000
  1620, -9999.000, -9999.000, -9999.000, -9999.000, -9999.000
  1680, -9999.000, -9999.000, -9999.000, -9999.000, -9999.000
  1740, -9999.000, -9999.000, -9999.000, -9999.000, -9999.000
  1800, -9999.000, -9999.000, -9999.000, -9999.000, -9999.000
  1860, -9999.000, -9999.000, -9999.000, -9999.000, -9999.000
  1920, -9999.000, -9999.000, -9999.000, -9999.000, -9999.000
  1980, -9999.000, -9999.000, -9999.000, -9999.000, -9999.000
  2040, -9999.000, -9999.000, -9999.000, -9999.000, -9999.000
  2100, -9999.000, -9999.000, -9999.000, -9999.000, -9999.000
  2160, -9999.000, -9999.000, -9999.000, -9999.000, -9999.000
  2220, -9999.000, -9999.000, -9999.000, -9999.000, -9999.000
  2280, -9999.000, -9999.000, -9999.000, -9999.000, -9999.000
  2340, -9999.000, -9999.000, -9999.000, -9999.000, -9999.000
  2400, -9999.000, -9999.000, -9999.000, -9999.000, -9999.000
  2460, -9999.000, -9999.000, -9999.000, -9999.000, -9999.000
  2520, -9999.000, -9999.000, -9999.000, -9999.000, -9999.000
  2580, -9999.000, -9999.000, -9999.000, -9999.000, -9999.000
  2640, -9999.000, -9999.000, -9999.000, -9999.000, -9999.000
  2700, -9999.000, -9999.000, -9999.000, -9999.000, -9999.000
  2760, -9999.000, -9999.000, -9999.000, -9999.000, -9999.000
  2820, -9999.000, -9999.000, -9999.000, -9999.000, -9999.000
  2880, -9999.000, -9999.000, -9999.000, -9999.000, -9999.000
  2940, -9999.000, -9999.000, -9999.000, -9999.000, -9999.000
  3000, -9999.000, -9999.000, -9999.000, -9999.000, -9999.000
  3060, -9999.000, -9999.000, -9999.000, -9999.000, -9999.000
  3120, -9999.000, -9999.000, -9999.000, -9999.000, -9999.000
  3180, -9999.000, -9999.000, -9999.000, -9999.000, -9999.000
  3240, -9999.000, -9999.000, -9999.000, -9999.000, -9999.000
  3300, -9999.000, -9999.000, -9999.000, -9999.000, -9999.000
  3360, -9999.000, -9999.000, -9999.000, -9999.000, -9999.000
  3420, -9999.000, -9999.000, -9999.000, -9999.000, -9999.000
  3480, -9999.000, -9999.000, -9999.000, -9999.000, -9999.000
  3540, -9999.000, -9999.000, -9999.000, -9999.000, -9999.000
  3600, -9999.000, -9999.000, -9999.000, -9999.000, -9999.000
  3660, -9999.000, -9999.000, -9999.000, -9999.000, -9999.000
  3720, -9999.000, -9999.000, -9999.000, -9999.000, -9999.000
  3780,  2.760, 26.458, 61.163,  3.243,  0.770
  3840,  2.871, 21.168, 60.588,  4.062,  0.525
  3900,  2.665, 18.565, 54.562,  3.736,  0.490
  3960,  2.660, 18.771, 50.247,  3.646,  0.463
  4020,  2.675, 19.627, 49.978,  3.601,  0.451
  4080,  2.724, 20.177, 48.492,  3.510,  0.456
  4140,  2.688, 19.408, 48.329,  3.521,  0.511
  4200,  2.683, 19.461, 47.439,  3.442,  0.464
  4260,  2.722, 20.378, 47.865,  3.528,  0.495
  4320,  2.687, 20.089, 46.333,  3.366,  0.395
  4380,  2.576, 18.480, 45.824,  3.290,  0.449
  4440,  2.624, 19.190, 44.939,  3.159,  0.396
  4500,  2.653, 20.286, 45.636,  3.320,  0.410
  4560,  2.684, 19.684, 44.593,  3.345,  0.418
  4620,  2.685, 19.433, 46.092,  3.399,  0.401
  4680,  2.601, 18.976, 45.485,  3.320,  0.416
  4740,  2.727, 20.045, 45.986,  3.299,  0.406
  4800,  2.718, 20.262, 46.926,  3.275,  0.382
  4860,  2.729, 21.400, 47.914,  3.449,  0.417
  4920,  2.811, 21.381, 48.324,  3.339,  0.401
  4980,  2.730, 20.790, 47.818,  3.225,  0.449
  5040,  2.696, 20.626, 47.090,  3.356,  0.442
  5100,  2.790, 21.804, 48.241,  3.260,  0.420
  5160,  2.865, 22.005, 50.071,  3.331,  0.520
  5220,  2.847, 22.828, 51.234,  3.404,  0.475
  5280,  2.764, 21.486, 48.809,  3.324,  0.487
  5340,  2.664, 20.587, 45.974,  3.317,  0.498
  5400,  2.664, 19.947, 45.885,  3.281,  0.495
  5460,  2.586, 20.091, 44.315,  3.333,  0.483
  5520,  2.602, 19.510, 43.464,  3.349,  0.471
  5580,  2.400, 18.158, 40.809,  3.211,  0.449
  5640,  2.454, 18.918, 39.146,  3.210,  0.495
  5700, -9999.000, -9999.000, -9999.000, -9999.000, -9999.000
  5760,  2.094, 15.068, 31.609,  3.072,  0.402
  5820,  2.156, 15.564, 31.779,  2.907,  0.409
  5880,  2.092, 14.414, 30.933,  2.759,  0.389
  5940,  2.025, 13.941, 30.699,  2.841,  0.492
  6000,  2.007, 14.623, 30.788,  2.976,  0.402
  6060,  1.992, 13.584, 29.284,  2.982,  0.366
  6120,  1.921, 13.549, 28.843,  2.800,  0.391
  6180,  1.908, 13.536, 27.753,  2.731,  0.450
  6240,  1.901, 13.821, 28.688,  2.719,  0.450
  6300,  1.854, 11.922, 28.057,  2.673,  0.464
  6360,  1.767, 11.013, 27.041,  2.496,  0.393
  6420,  1.638, 10.169, 25.016,  2.565,  0.412
  6480,  1.653, 10.091, 24.246,  2.543,  0.369
  6540,  1.684, 10.207, 24.113,  2.484,  0.321
  6600,  1.805, 12.463, 25.278,  2.665,  0.369
  6660,  1.925, 13.388, 26.834,  2.784,  0.291
  6720,  1.939, 14.171, 27.307,  2.751,  0.317
  6780,  1.938, 13.690, 27.290,  2.700,  0.276
  6840,  1.946, 13.564, 26.988,  2.747,  0.263
  6900,  1.965, 13.767, 27.602,  2.893,  0.282
  6960,  1.925, 13.740, 27.763,  2.769,  0.281
  7020,  2.032, 14.412, 27.987,  2.815,  0.296
  7080,  2.088, 14.673, 28.643,  2.961,  0.284
  7140,  2.092, 14.316, 28.944,  2.951,  0.264
  7200,  2.064, 15.018, 29.539,  2.955,  0.286
  7260,  2.113, 14.866, 29.815,  2.887,  0.249
  7320,  2.080, 15.325, 29.920,  2.998,  0.241
  7380,  2.155, 15.331, 28.791,  3.043,  0.296
  7440,  2.183, 15.607, 30.212,  3.237,  0.246
  7500,  2.153, 14.610, 29.153,  3.031,  0.236
  7560,  2.090, 14.672, 26.818,  3.158,  0.255
  7620,  2.117, 15.664, 28.014,  3.243,  0.248
  7680,  2.176, 15.630, 28.895,  3.119,  0.265
  7740,  2.167, 15.485, 27.653,  3.131,  0.265
  7800,  2.152, 15.108, 29.455,  3.044,  0.283
  7860,  2.172, 14.989, 29.353,  3.124,  0.231
  7920,  2.118, 15.330, 29.391,  3.091,  0.270
  7980,  2.196, 15.368, 29.167,  3.199,  0.264
  8040,  2.234, 16.051, 29.494,  3.165,  0.318
  8100,  2.244, 15.543, 29.549,  3.276,  0.250
  8160,  2.266, 15.889, 31.065,  3.313,  0.297
  8220,  2.246, 15.290, 29.920,  3.194,  0.330
  8280,  2.302, 15.743, 30.706,  3.156,  0.249
  8340,  2.253, 15.646, 29.999,  3.299,  0.301
  8400,  2.252, 15.912, 31.090,  3.149,  0.357
  8460,  2.347, 15.899, 28.929,  3.228,  0.311
  8520,  2.318, 15.421, 28.930,  3.408,  0.396
  8580,  2.301, 14.854, 28.620,  3.332,  0.349
  8640,  2.284, 14.860, 29.230,  3.396,  0.377
  8700,  2.244, 13.965, 28.348,  3.348,  0.322
  8760,  2.183, 13.451, 27.267,  3.460,  0.374
  8820,  2.183, 12.943, 26.550,  3.288,  0.326
  8880,  2.121, 12.635, 25.753,  3.192,  0.289
  8940,  2.154, 12.324, 24.886,  3.221,  0.369
  9000,  2.134, 12.315, 23.897,  3.231,  0.341
  9060,  2.062, 11.731, 23.579,  3.350,  0.338
  9120,  2.034, 11.230, 23.136,  3.211,  0.333
  9180,  1.995, 10.979, 22.076,  3.099,  0.331
  9240,  1.971, 10.949, 21.167,  3.151,  0.326
  9300,  2.007, 11.139, 22.432,  2.979,  0.358
  9360, -9999.000, -9999.000, -9999.000, -9999.000, -9999.000
  9420,  1.808, 10.801, 17.026,  3.233,  0.366
  9480,  1.888, 10.810, 19.007,  3.301,  0.330
  9540,  1.959, 10.779, 19.512,  3.288,  0.310
  9600,  1.969, 11.213, 21.077,  3.338,  0.325
  9660,  2.027, 11.306, 20.150,  3.371,  0.310
  9720,  2.050, 12.105, 21.721,  3.408,  0.412
  9780,  2.122, 12.920, 24.190,  3.789,  0.441
  9840,  2.119, 13.182, 25.448,  3.881,  0.472
  9900,  2.138, 13.370, 25.325,  4.022,  0.514
  9960,  2.174, 13.244, 26.213,  4.047,  0.515
 10020,  2.136, 12.698, 27.832,  4.099,  0.533
 10080,  2.072, 12.504, 24.312,  4.263,  0.559
 10140,  2.025, 12.185, 24.869,  4.438,  0.528
 10200,  1.961, 12.359, 24.527,  4.476,  0.532
 10260,  1.999, 12.028, 24.704,  4.248,  0.555
 10320,  1.960, 11.577, 23.720,  4.372,  0.506
 10380,  1.895, 11.282, 22.378,  4.270,  0.527
 10440,  1.871, 11.551, 22.973,  4.225,  0.455
 10500,  1.849, 10.866, 22.015,  4.490,  0.556
 10560,  1.770, 10.431, 20.261,  4.912,  0.487
 10620,  1.732, 10.155, 20.638,  4.719,  0.423
 10680,  1.689,  9.363, 19.177,  4.720,  0.446
 10740,  1.657,  9.313, 19.232,  4.864,  0.381
 10800,  1.643,  9.536, 19.185,  5.025,  0.404
 10860,  1.659,  9.460, 18.191,  5.332,  0.363
 10920,  1.682,  9.364, 18.548,  4.943,  0.435
 10980,  1.701,  9.402, 17.896,  5.060,  0.556
 11040,  1.693,  9.551, 18.174,  4.932,  0.522
 11100,  1.711,  9.950, 19.122,  5.219,  0.596
 11160,  1.794, 10.355, 20.580,  5.391,  0.628
 11220, -9999.000, -9999.000, -9999.000, -9999.000, -9999.000
 11280,  1.725, 10.343, 19.586,  5.622,  0.565
 11340,  1.781, 10.854, 19.825,  6.294,  0.671
 11400,  1.749, 10.538, 20.429,  6.126,  0.658
 11460,  1.816, 10.684, 21.832,  5.868,  0.706
 11520,  1.868, 11.265, 21.631,  6.016,  0.715
 11580,  1.913, 11.917, 25.212,  6.528,  0.867
 11640,  1.924, 11.146, 27.287,  5.950,  0.863
 11700,  1.918, 11.116, 30.177,  5.939,  0.762
 11760,  1.897, 10.870, 30.452,  5.732,  0.782
 11820,  1.880, 11.199, 32.141,  5.800,  0.832
 11880,  1.861, 10.661, 32.454,  5.579,  0.859
 11940,  1.833, 11.091, 32.095,  5.455,  0.729
 12000,  1.862, 10.758, 33.135,  5.481,  0.820
 12060,  1.834, 10.748, 34.755,  5.609,  0.732
 12120,  1.868, 11.205, 34.326,  5.645,  0.849
 12180,  1.868, 11.546, 36.670,  5.753,  0.768
 12240,  1.833, 12.358, 36.318,  5.900,  0.840
 12300,  1.894, 12.502, 38.027,  6.135,  0.793
 12360,  1.896, 12.872, 39.961,  6.321,  0.748
 12420,  1.901, 12.915, 39.895,  6.564,  0.785
 12480,  1.947, 13.792, 42.405,  6.739,  0.899
 12540,  1.960, 13.684, 42.258,  6.752,  0.838
 12600,  1.972, 14.077, 43.520,  6.862,  0.963
 12660,  2.000, 14.253, 44.601,  6.811,  0.929
 12720,  2.006, 14.130, 45.532,  7.169,  0.936
 12780,  1.992, 15.350, 47.695,  7.133,  0.987
 12840,  2.048, 14.943, 47.278,  7.430,  0.873
 12900,  2.045, 14.304, 45.679,  7.249,  0.895
 12960,  2.105, 14.964, 46.584,  7.364,  0.950
 13020,  2.094, 15.719, 48.163,  7.545,  1.016
 13080, -9999.000, -9999.000, -9999.000, -9999.000, -9999.000
 13140,  1.965, 14.868, 42.312,  6.965,  0.848
 13200,  2.080, 14.932, 43.387,  7.157,  0.899
 13260,  2.153, 15.373, 48.488,  7.778,  0.990
 13320,  2.066, 15.328, 46.143,  7.478,  1.011
 13380,  2.052, 15.079, 45.720,  7.557,  0.934
 13440,  2.137, 15.368, 47.120,  7.579,  1.033
 13500,  2.161, 15.552, 47.449,  7.678,  1.097
 13560,  2.130, 16.682, 48.310,  7.502,  1.114
 13620,  2.123, 15.886, 48.056,  7.351,  1.083
 13680,  2.178, 16.397, 48.186,  7.460,  0.988
 13740,  2.101, 16.236, 46.779,  7.120,  1.031
 13800,  2.230, 17.461, 45.455,  7.336,  0.963
 13860,  2.193, 17.550, 51.015,  7.368,  0.980
 13920,  2.203, 16.415, 47.631,  7.304,  1.083
 13980,  2.193, 17.227, 46.854,  6.957,  0.970
 14040,  2.166, 16.225, 46.140,  7.140,  0.935
 14100,  2.119, 16.483, 43.933,  7.046,  0.993
 14160,  2.106, 16.419, 44.611,  7.015,  0.982
 14220,  2.077, 14.951, 42.974,  7.308,  0.967
 14280,  2.003, 14.408, 43.155,  7.317,  0.981
 14340,  2.049, 14.777, 41.800,  7.206,  0.981
 14400,  2.068, 14.886, 41.343,  6.840,  0.927
 14460,  2.065, 14.512, 42.828,  6.815,  1.011
 14520,  2.099, 14.674, 43.684,  7.022,  0.951
 14580,  2.106, 14.790, 43.688,  7.279,  0.890
 14640,  2.110, 15.074, 45.107,  7.400,  0.946
 14700,  2.113, 15.058, 43.576,  7.122,  0.837
 14760,  2.132, 15.347, 44.375,  7.048,  0.966
 14820,  2.176, 15.853, 45.004,  6.875,  0.901
 14880,  2.160, 16.262, 45.011,  6.653,  0.788
 14940,  2.132, 14.362, 41.159,  6.822,  0.693
 15000,  2.134, 15.684, 43.117,  6.730,  0.872
 15060,  2.155, 15.965, 45.212,  6.988,  0.912
 15120,  2.156, 15.897, 45.408,  6.939,  0.882
 15180,  2.184, 15.829, 44.279,  7.040,  0.835
 15240,  2.202, 15.970, 46.109,  6.936,  0.923
 15300,  2.232, 16.253, 45.984,  7.223,  0.850
 15360,  2.190, 15.834, 44.702,  7.441,  0.898
 15420,  2.200, 16.356, 47.517,  7.242,  0.903
 15480,  2.202, 15.337, 46.779,  7.348,  0.896
 15540,  2.212, 16.237, 46.827,  7.128,  0.924
 15600,  2.223, 15.819, 46.969,  7.389,  0.943
 15660,  2.184, 15.591, 45.805,  7.461,  1.006
 15720,  2.236, 15.975, 46.228,  7.227,  0.920
 15780,  2.182, 15.588, 45.802,  7.247,  0.974
 15840,  2.155, 15.490, 45.580,  7.296,  0.915
 15900,  2.151, 15.700, 46.377,  7.139,  0.926
 15960,  2.179, 14.987, 45.379,  7.269,  0.964
 16020,  2.154, 14.625, 45.905,  7.350,  0.936
 16080,  2.182, 15.158, 46.189,  7.356,  0.926
 16140,  2.171, 15.137, 44.569,  7.140,  0.976
 16200,  2.163, 14.454, 45.331,  7.282,  0.986
 16260,  2.102, 14.279, 45.011,  7.264,  0.858
 16320,  2.074, 14.332, 43.870,  7.208,  0.875
 16380,  2.081, 14.077, 44.524,  7.195,  0.837
 16440,  2.092, 14.025, 44.698,  7.411,  0.861
 16500,  2.082, 13.861, 43.865,  7.151,  0.886
 16560,  2.076, 14.059, 44.137,  7.171,  0.916
 16620,  2.073, 13.985, 43.323,  7.223,  0.966
 16680,  2.073, 14.095, 44.312,  7.562,  0.853
 16740, -9999.000, -9999.000, -9999.000, -9999.000, -9999.000
 16800,  2.045, 12.687, 40.771,  6.326,  0.639
 16860,  2.049, 13.138, 40.621,  7.064,  0.791
 16920,  2.059, 13.367, 41.689,  7.286,  0.824
 16980,  2.075, 13.209, 41.430,  7.404,  0.887
 17040,  2.069, 13.463, 41.966,  7.326,  0.906
 17100,  2.067, 13.139, 41.586,  7.240,  0.842
 17160,  2.098, 13.715, 42.572,  7.428,  0.881
 17220,  2.035, 12.541, 40.308,  7.416,  0.809
 17280,  1.995, 12.444, 41.553,  7.428,  0.914
 17340,  1.987, 12.534, 42.016,  7.490,  0.949
 17400,  2.002, 12.090, 41.583,  7.120,  0.870
 17460,  1.967, 11.847, 40.105,  7.138,  0.859
 17520,  2.012, 12.167, 40.138,  7.055,  0.948
 17580,  1.981, 11.835, 40.318,  6.847,  0.889
 17640,  2.003, 11.713, 40.273,  6.892,  0.933
 17700,  1.996, 11.664, 38.939,  6.970,  0.907
 17760,  1.901, 11.826, 39.757,  6.769,  0.833
 17820,  1.908, 11.269, 38.515,  6.673,  0.871
 17880,  1.865, 11.772, 38.542,  6.896,  0.968
 17940,  1.897, 10.930, 38.778,  6.844,  0.900
 18000,  1.949, 10.761, 37.519,  6.821,  0.900
 18060,  1.883, 11.012, 38.514,  6.634,  0.847
 18120,  1.882, 11.063, 38.920,  6.895,  0.901
 18180,  1.864, 11.108, 37.673,  6.826,  0.944
 18240,  1.875, 11.091, 36.917,  6.945,  0.851
 18300,  1.884, 11.280, 38.715,  7.035,  0.909
 18360,  1.926, 11.679, 39.353,  6.932,  0.862
 18420,  1.935, 11.573, 38.551,  7.247,  0.952
 18480,  1.934, 11.442, 38.794,  7.113,  0.995
 18540,  1.924, 11.853, 39.082,  7.245,  0.920
 18600,  1.898, 12.016, 38.957,  7.763,  1.452
 18660,  1.844, 11.069, 35.970,  6.940,  0.851
 18720,  1.953, 11.625, 36.813,  7.057,  0.909
 18780,  1.959, 12.037, 39.555,  7.465,  0.957
 18840,  1.957, 11.690, 38.800,  7.320,  1.022
 18900,  1.933, 11.478, 39.957,  7.513,  1.087
 18960,  1.964, 11.680, 39.344,  7.847,  1.070
 19020,  1.999, 11.822, 40.153,  7.859,  1.046
 19080,  1.944, 11.338, 39.132,  7.661,  1.043
 19140,  2.000, 12.115, 38.370,  7.441,  1.076
 19200,  1.989, 11.655, 38.801,  7.682,  1.014
 19260,  1.941, 11.219, 38.998,  7.497,  1.122
 19320,  1.920, 10.740, 38.005,  7.400,  1.014
 19380,  1.903, 11.050, 38.014,  7.161,  0.972
 19440,  1.912, 10.885, 38.992,  7.578,  0.994
 19500,  1.913, 10.628, 37.286,  7.295,  0.943
 19560,  1.940, 11.370, 39.292,  7.410,  1.101
 19620,  1.972, 11.095, 37.586,  7.633,  1.032
 19680,  1.977, 11.139, 37.467,  7.512,  1.125
 19740,  1.987, 11.746, 39.651,  7.876,  1.168
 19800,  2.026, 11.957, 38.886,  7.992,  1.220
 19860,  2.091, 12.049, 39.123,  8.495,  1.302
 19920,  1.944, 10.831, 37.681,  8.287,  1.310
 19980,  2.092, 11.680, 37.638,  8.895,  1.482
 20040,  1.973, 11.045, 38.001,  9.257,  1.419
 20100,  1.997, 10.616, 36.773,  8.939,  1.434
 20160,  2.042, 10.806, 35.774,  8.807,  1.377
 20220,  1.985, 10.167, 37.179,  7.957,  1.338
 20280,  1.917, 10.173, 36.377,  7.817,  1.159
 20340,  1.955, 10.418, 35.374,  7.893,  1.237
 20400,  1.950, 10.427, 36.487,  8.077,  1.244
 20460, -9999.000, -9999.000, -9999.000, -9999.000, -9999.000
 20520,  1.693,  9.366, 30.433,  6.963,  1.039
 20580,  1.778,  9.264, 31.755,  6.964,  1.075
 20640,  1.794,  8.852, 32.138,  6.927,  1.059
 20700,  1.778,  8.457, 31.301,  6.869,  1.077
 20760,  1.750,  8.879, 31.236,  6.566,  1.069
 20820,  1.758,  8.848, 30.681,  6.467,  0.985
 20880,  1.730,  8.699, 30.578,  6.408,  1.003
 20940,  1.718,  8.803, 31.248,  6.442,  1.002
 21000,  1.716,  8.225, 30.261,  6.553,  1.014
 21060,  1.726,  8.845, 32.098,  6.676,  1.010
 21120,  1.790,  8.744, 31.213,  6.770,  0.940
 21180,  1.831,  9.146, 32.870,  7.046,  1.002
 21240,  1.854,  8.875, 32.437,  6.999,  1.061
 21300,  1.827,  9.130, 32.684,  6.985,  1.073
 21360,  1.810,  9.004, 33.400,  7.038,  1.114
 21420,  1.879,  9.074, 32.111,  7.832,  1.197
 21480,  1.858,  9.168, 32.340,  7.672,  1.122
 21540,  1.895,  9.188, 34.196,  7.937,  1.269
 21600,  1.933,  9.280, 33.327,  8.041,  1.247
 21660,  1.892,  9.278, 34.263,  7.815,  1.095
 21720,  1.868,  9.163, 34.243,  7.686,  1.103
 21780,  1.888,  9.383, 33.209,  7.603,  1.158
 21840,  1.910,  9.652, 32.903,  7.487,  1.099
 21900,  1.938,  9.158, 34.969,  7.404,  1.148
 21960,  1.880,  8.929, 33.782,  7.435,  1.063
 22020,  1.916,  9.022, 33.824,  7.505,  1.155
 22080,  1.935,  9.500, 34.312,  8.195,  1.020
 22140,  1.989,  9.585, 33.794,  8.684,  1.061
 22200,  2.081, 10.117, 34.777,  9.183,  1.084
 22260,  2.087, 10.584, 35.207,  9.712,  1.189
 22320,  2.228, 12.749, 35.372,  9.533,  1.734
 22380,  2.223, 11.631, 36.454, 10.228,  1.592
 22440,  2.293, 11.645, 36.001, 11.371,  1.508
 22500,  2.068, 10.061, 34.104,  9.944,  1.350
 22560,  2.057,  9.729, 33.414,  9.291,  1.186
 22620,  2.054,  9.772, 33.542,  9.376,  1.156
 22680,  2.199, 10.911, 34.644, 10.508,  1.321
 22740,  2.137,  9.943, 33.982,  9.875,  1.205
 22800,  2.067,  9.842, 32.068,  9.108,  1.095
 22860,  2.030,  9.845, 34.411,  9.081,  1.204
 22920,  1.929,  9.310, 33.119,  8.539,  1.133
 22980,  1.901,  8.717, 31.158,  7.977,  1.061
 23040,  1.894,  8.980, 32.308,  8.072,  1.006
 23100,  1.930,  8.801, 31.672,  8.411,  1.041
 23160,  1.910,  8.709, 31.054,  8.055,  1.062
 23220,  1.954,  9.496, 32.488,  8.974,  1.124
 23280,  2.333, 11.273, 33.983, 11.421,  1.560
 23340,  2.340, 11.369, 36.610, 11.305,  1.657
 23400,  2.188, 10.875, 34.216, 10.752,  1.536
 23460,  2.011,  9.291, 32.951,  9.423,  1.256
 23520,  1.930,  9.374, 32.426,  9.078,  1.163
 23580,  1.934,  9.067, 32.201,  8.915,  0.993
 23640,  1.872,  8.762, 30.960,  8.789,  0.976
 23700,  1.940,  9.277, 33.205,  9.256,  1.069
 23760,  1.978,  8.998, 32.530,  9.339,  1.075
 23820,  2.008,  9.437, 32.093,  9.262,  1.085
 23880,  1.987,  8.926, 32.442,  9.309,  1.094
 23940,  1.932,  8.795, 31.910,  8.908,  1.003
 24000,  1.993,  8.988, 31.542,  9.113,  0.989
 24060,  1.980,  9.110, 32.713,  9.351,  1.066
 24120,  1.956,  8.592, 31.881,  8.999,  0.896
 24180, -9999.000, -9999.000, -9999.000, -9999.000, -9999.000
 24240,  2.009,  8.799, 28.278,  8.818,  0.996
 24300,  1.930,  8.635, 29.122,  8.562,  0.979
 24360,  1.956,  8.929, 30.295,  8.960,  0.948
 24420,  1.915,  8.663, 28.931,  9.002,  0.927
 24480,  1.918,  8.722, 29.798,  8.696,  0.952
 24540,  1.946,  8.920, 30.819,  8.836,  1.001
 24600,  1.905,  8.996, 31.083,  8.902,  0.991
 24660,  1.961,  8.883, 29.777,  8.885,  1.063
 24720,  1.900,  8.789, 29.158,  8.721,  1.009
 24780,  1.932,  8.598, 29.917,  8.413,  1.037
 24840,  1.918,  8.322, 28.247,  7.960,  0.915
 24900,  1.863,  8.305, 28.163,  7.840,  0.926
 24960,  1.891,  8.338, 28.282,  7.816,  0.947
 25020,  1.944,  8.552, 28.249,  7.898,  1.088
 25080,  1.923,  8.673, 28.860,  8.180,  1.199
 25140,  1.989,  8.458, 27.488,  8.317,  1.098
 25200,  2.093,  8.910, 28.643,  8.219,  1.238
 25260,  2.179,  9.382, 30.453,  8.903,  1.427
 25320,  2.282,  9.749, 32.786,  9.388,  1.542
 25380,  2.419, 10.622, 32.596,  9.935,  1.845
 25440,  2.542, 11.753, 35.036, 11.224,  2.063
 25500,  2.640, 11.982, 35.650, 11.982,  2.189
 25560,  2.757, 12.187, 36.603, 12.146,  2.337
 25620,  2.797, 12.544, 38.050, 12.610,  2.245
 25680,  2.683, 12.533, 38.227, 12.294,  2.214
 25740,  2.805, 12.463, 39.508, 12.436,  2.203
 25800,  2.723, 11.794, 39.469, 12.227,  2.259
 25860,  2.709, 12.080, 38.493, 11.959,  2.159
 25920,  2.721, 12.133, 38.767, 11.992,  2.084
 25980,  2.740, 11.923, 38.503, 11.723,  2.062
 26040,  2.637, 11.687, 36.430, 11.609,  2.131
 26100,  2.652, 11.976, 36.523, 11.848,  2.239
 26160,  2.619, 12.169, 38.351, 11.752,  2.296
 26220,  2.603, 11.548, 37.710, 12.060,  2.296
 26280,  2.525, 11.845, 38.568, 11.738,  2.153
 26340,  2.609, 11.781, 37.884, 11.739,  2.353
 26400,  2.562, 11.376, 37.674, 11.741,  2.384
 26460,  2.546, 11.442, 39.537, 11.726,  2.514
 26520,  2.497, 11.374, 38.450, 12.349,  2.489
 26580,  2.480, 10.819, 37.309, 12.277,  2.526
 26640,  2.492, 11.148, 37.311, 11.957,  2.449
 26700,  2.472, 10.617, 36.141, 11.670,  2.354
 26760,  2.479, 10.622, 35.578, 11.664,  2.312
 26820,  2.488, 10.819, 37.779, 11.500,  2.216
 26880,  2.436, 10.131, 36.424, 11.181,  2.271
 26940,  2.427, 10.876, 36.095, 11.303,  2.214
 27000,  2.446, 10.877, 37.536, 11.217,  2.446
 27060,  2.455, 10.398, 36.017, 10.976,  2.355
 27120,  2.406, 10.353, 35.515, 11.158,  2.373
 27180,  2.407, 10.842, 38.246, 11.721,  2.520
 27240,  2.467, 11.276, 37.277, 11.559,  2.533
 27300,  2.432, 10.569, 35.959, 10.996,  2.421
 27360,  2.438, 10.516, 36.314, 10.826,  2.387
 27420,  2.442, 10.193, 36.119, 10.814,  2.398
 27480,  2.438, 10.321, 35.564, 11.015,  2.264
 27540,  2.506, 10.494, 36.923, 11.088,  2.418
 27600,  2.551, 10.100, 37.181, 10.784,  2.359
 27660,  2.642, 10.099, 37.342, 10.582,  2.161
 27720,  2.601, 10.427, 39.588, 10.634,  2.243
 27780,  2.563, 10.151, 38.089, 10.913,  2.235
 27840, -9999.000, -9999.000, -9999.000, -9999.000, -9999.000
 27900,  2.381,  9.553, 34.043,  9.952,  2.027
 27960,  2.447,  9.867, 34.021,  9.987,  1.926
 28020,  2.410,  9.872, 35.939, 10.158,  2.036
 28080,  2.465,  9.894, 36.769, 10.369,  2.110
 28140,  2.482,  9.862, 35.444, 10.202,  2.045
 28200,  2.465, 10.031, 35.765, 10.143,  2.100
 28260,  2.511,  9.445, 37.212, 10.069,  2.042
 28320,  2.446,  9.971, 36.800,  9.899,  2.149
 28380,  2.430,  9.556, 35.825,  9.632,  2.135
 28440,  2.449,  9.667, 36.972,  9.844,  2.074
 28500,  2.340,  9.095, 34.824, 10.099,  1.859
 28560,  2.404,  9.227, 35.327, 10.164,  1.926
 28620,  2.413,  8.985, 36.143, 10.026,  1.942
 28680,  2.415,  9.367, 37.708, 10.200,  1.957
 28740,  2.426,  9.006, 35.262,  9.977,  1.940
 28800,  2.373,  9.007, 35.135,  9.562,  1.884
 28860,  2.353,  8.817, 36.885,  9.377,  1.889
 28920,  2.339,  8.904, 36.381,  9.094,  1.827
 28980,  2.314,  8.703, 35.101,  8.898,  1.742
 29040,  2.242,  8.609, 35.459,  9.067,  1.627
 29100,  2.214,  8.313, 33.687,  9.172,  1.662
 29160,  2.143,  8.304, 32.426,  9.030,  1.575
 29220,  2.149,  8.450, 34.061,  8.748,  1.672
 29280,  2.051,  8.273, 32.793,  8.884,  1.429
 29340,  2.102,  7.986, 32.518,  8.634,  1.410
 29400,  2.077,  8.481, 33.324,  8.563,  1.378
 29460,  2.086,  7.611, 30.785,  8.470,  1.363
 29520,  2.076,  7.941, 31.049,  8.468,  1.392
 29580,  2.045,  7.897, 33.085,  8.436,  1.384
 29640,  2.040,  7.828, 32.305,  8.522,  1.372
 29700, -9999.000, -9999.000, -9999.000, -9999.000, -9999.000
 29760,  2.048,  7.866, 30.423,  8.031,  1.180
 29820,  2.051,  7.738, 28.947,  8.319,  1.332
 29880,  2.084,  7.752, 30.177,  8.221,  1.368
 29940,  1.978,  7.403, 31.662,  8.095,  1.339
 30000,  1.931,  7.516, 31.724,  8.597,  1.323
 30060,  1.948,  7.544, 30.599,  8.496,  1.328
 30120,  1.958,  7.111, 29.622,  8.186,  1.379
 30180,  2.008,  7.406, 29.815,  8.104,  1.173
 30240,  1.932,  7.043, 29.751,  7.989,  1.194
 30300,  1.948,  7.068, 29.632,  8.226,  1.244
 30360,  1.963,  6.752, 29.589,  7.937,  1.171
 30420,  1.937,  6.929, 28.998,  8.210,  1.202
 30480,  1.930,  6.786, 27.702,  8.117,  1.297
 30540,  1.939,  6.820, 29.691,  7.821,  1.385
 30600,  1.905,  6.403, 29.511,  8.637,  1.282
 30660,  1.931,  6.435, 28.463,  8.778,  1.341
 30720,  1.929,  6.669, 27.712,  8.371,  1.221
 30780,  1.868,  6.555, 28.532,  8.025,  1.285
 30840,  1.944,  6.597, 28.009,  7.976,  1.202
 30900,  1.872,  6.570, 29.009,  8.009,  1.282
 30960,  1.890,  6.744, 28.868,  8.284,  1.310
 31020,  1.938,  6.610, 27.617,  7.926,  1.234
 31080,  1.879,  6.571, 27.426,  8.163,  1.283
 31140,  1.886,  6.344, 28.114,  8.222,  1.204
 31200,  1.945,  6.235, 27.203,  8.063,  1.342
 31260,  1.963,  6.682, 28.587,  8.744,  1.328
 31320,  1.949,  6.499, 28.862,  8.849,  1.425
 31380,  1.940,  6.058, 27.832,  8.577,  1.332
 31440,  1.977,  6.290, 28.532,  8.452,  1.371
 31500,  1.927,  6.286, 28.653,  8.664,  1.391
 31560, -9999.000, -9999.000, -9999.000, -9999.000, -9999.000
 31620,  1.793,  5.570, 26.012,  8.134,  1.368
 31680,  1.896,  5.876, 27.588,  8.271,  1.403
 31740,  1.902,  5.616, 27.355,  8.309,  1.355
 31800,  1.912,  5.757, 27.119,  8.385,  1.345
 31860,  1.976,  5.756, 28.356,  8.243,  1.451
 31920,  1.946,  5.733, 27.540,  8.442,  1.421
 31980,  1.962,  5.560, 27.709,  8.408,  1.436
 32040,  1.974,  5.493, 28.383,  8.478,  1.357
 32100,  1.902,  5.728, 28.615,  8.536,  1.443
 32160,  1.958,  5.592, 28.689,  8.671,  1.443
 32220,  1.941,  5.647, 27.472,  8.863,  1.389
 32280,  1.926,  5.460, 27.406,  8.520,  1.355
 32340,  1.969,  5.339, 27.389,  8.781,  1.351
 32400,  1.966,  5.272, 27.872,  8.805,  1.409
 32460,  1.963,  5.590, 27.967,  8.704,  1.435
 32520,  1.975,  5.289, 27.207,  8.524,  1.385
 32580,  1.948,  5.501, 27.000,  8.641,  1.385
 32640,  1.967,  5.419, 27.068,  8.692,  1.383
 32700,  2.041,  5.623, 28.079,  8.622,  1.390
 32760,  1.968,  5.299, 27.824,  8.368,  1.353
 32820,  1.973,  5.473, 28.073,  8.584,  1.389
 32880,  1.957,  5.272, 27.693,  8.750,  1.468
 32940,  2.004,  5.441, 27.655,  8.558,  1.367
 33000,  1.984,  5.327, 26.319,  8.705,  1.326
 33060,  1.957,  5.403, 28.732,  8.625,  1.446
 33120,  2.004,  5.361, 28.257,  8.543,  1.434
 33180,  1.967,  5.247, 27.017,  8.561,  1.501
 33240,  1.949,  5.292, 27.924,  8.526,  1.454
 33300,  2.019,  5.171, 26.501,  8.609,  1.346
 33360,  1.976,  5.646, 26.735,  8.372,  1.477
 33420,  1.921,  5.421, 24.241,  8.161,  1.308
 33480,  1.969,  5.205, 25.708,  8.249,  1.293
 33540,  2.008,  5.220, 25.755,  8.455,  1.282
 33600,  1.938,  5.299, 25.863,  8.122,  1.263
 33660,  2.012,  5.431, 26.465,  8.419,  1.347
 33720,  1.994,  5.274, 26.349,  8.196,  1.267
 33780,  1.976,  5.347, 27.367,  8.392,  1.379
 33840,  2.015,  5.326, 27.922,  8.327,  1.295
 33900,  1.994,  5.265, 27.485,  8.316,  1.392
 33960,  2.010,  5.253, 26.954,  8.437,  1.294
 34020,  2.025,  5.308, 26.930,  8.547,  1.371
 34080,  2.004,  5.407, 26.602,  8.347,  1.288
 34140,  2.056,  5.284, 27.672,  8.455,  1.343
 34200,  2.068,  5.463, 28.461,  8.421,  1.360
 34260,  2.018,  5.363, 26.763,  8.177,  1.345
 34320,  2.002,  5.271, 26.693,  8.095,  1.319
 34380,  2.069,  5.313, 27.817,  8.471,  1.308
 34440,  2.054,  5.316, 28.235,  8.309,  1.362
 34500,  2.055,  5.412, 28.201,  8.192,  1.340
 34560,  2.053,  5.388, 28.148,  8.310,  1.348
 34620,  2.081,  5.235, 28.032,  8.241,  1.319
 34680,  2.034,  4.986, 27.543,  8.083,  1.314
 34740,  2.095,  5.411, 28.217,  8.106,  1.371
 34800,  2.092,  5.252, 28.442,  8.410,  1.299
 34860,  2.113,  5.276, 28.030,  8.332,  1.363
 34920,  2.039,  5.281, 28.766,  8.467,  1.472
 34980,  1.996,  5.046, 27.675,  8.215,  1.296
 35040,  2.040,  5.213, 27.124,  8.073,  1.359
 35100,  2.005,  5.114, 27.672,  8.009,  1.337
 35160,  2.032,  5.192, 28.408,  8.191,  1.409
 35220, -9999.000, -9999.000, -9999.000, -9999.000, -9999.000
 35280,  1.984,  4.865, 24.868,  7.832,  1.398
 35340,  2.039,  4.996, 24.927,  7.922,  1.330
 35400,  2.070,  4.930, 26.048,  7.781,  1.396
 35460,  2.118,  5.332, 26.540,  8.129,  1.313
 35520,  2.041,  5.149, 26.951,  8.002,  1.330
 35580,  2.063,  5.141, 27.628,  8.104,  1.439
 35640,  2.051,  5.097, 27.947,  8.058,  1.475
 35700,  2.062,  5.105, 27.064,  8.130,  1.438
 35760,  2.073,  5.062, 27.221,  8.039,  1.441
 35820,  2.088,  4.963, 27.440,  7.997,  1.393
 35880,  2.124,  5.071, 28.937,  8.092,  1.400
 35940,  2.080,  4.991, 28.155,  8.341,  1.290
 36000,  2.095,  5.033, 28.917,  8.341,  1.406
 36060,  2.085,  4.987, 28.316,  8.205,  1.480
 36120,  2.081,  5.227, 26.976,  8.382,  1.430
 36180,  2.086,  5.078, 27.942,  8.118,  1.376
 36240,  2.032,  4.963, 27.928,  7.993,  1.388
 36300,  2.046,  5.174, 29.583,  7.866,  1.495
 36360,  2.044,  5.086, 28.282,  8.061,  1.459
 36420,  2.109,  5.000, 28.172,  8.225,  1.388
 36480,  2.027,  5.041, 28.200,  8.231,  1.339
 36540,  2.058,  5.009, 27.559,  8.124,  1.402
 36600,  2.040,  4.978, 28.164,  7.998,  1.407
 36660,  2.058,  4.873, 28.938,  8.137,  1.447
 36720,  2.011,  4.791, 28.780,  7.888,  1.359
 36780,  2.043,  4.804, 28.142,  7.794,  1.401
 36840,  2.031,  4.848, 27.866,  7.765,  1.301
 36900,  2.053,  4.856, 28.769,  7.689,  1.391
 36960,  2.046,  4.977, 29.209,  8.005,  1.412
 37020,  2.073,  4.932, 28.836,  7.783,  1.427
 37080,  2.065,  6.252, 26.496,  7.344,  0.779
 37140,  2.061,  4.618, 26.498,  7.754,  1.387
 37200,  2.043,  4.617, 27.357,  7.967,  1.460
 37260,  2.047,  4.815, 27.459,  7.805,  1.497
 37320,  2.118,  4.686, 28.375,  8.207,  1.523
 37380,  2.067,  5.076, 28.633,  8.125,  1.530
 37440,  2.045,  4.700, 28.463,  8.054,  1.444
 37500,  2.066,  4.733, 27.359,  7.948,  1.384
 37560,  2.089,  4.520, 27.706,  7.884,  1.470
 37620,  2.152,  4.682, 29.288,  8.134,  1.506
 37680,  2.146,  4.582, 30.650,  8.026,  1.400
 37740,  2.139,  4.641, 30.487,  8.025,  1.486
 37800,  2.042,  4.562, 29.425,  7.795,  1.410
 37860,  2.072,  4.530, 29.628,  7.807,  1.371
 37920,  2.094,  4.369, 29.525,  7.736,  1.333
 37980,  2.081,  4.454, 29.142,  7.672,  1.422
 38040,  2.049,  4.911, 31.617,  7.665,  1.436
 38100,  2.059,  4.368, 29.332,  7.585,  1.455
 38160,  2.055,  4.757, 29.628,  7.632,  1.397
 38220,  2.059,  4.344, 29.351,  7.701,  1.505
 38280,  1.985,  4.625, 29.185,  7.597,  1.367
 38340,  1.999,  4.621, 29.644,  7.674,  1.408
 38400,  2.038,  4.531, 29.645,  7.621,  1.456
 38460,  2.030,  4.637, 28.652,  7.846,  1.357
 38520,  2.040,  4.418, 28.780,  7.554,  1.320
 38580,  2.078,  4.317, 28.726,  7.567,  1.327
 38640,  2.036,  4.260, 28.675,  7.441,  1.258
 38700,  2.071,  4.837, 29.547,  7.367,  1.345
 38760,  1.992,  4.645, 29.816,  7.389,  1.336
 38820,  1.987,  4.503, 28.526,  7.304,  1.278
 38880,  1.972,  4.420, 27.546,  7.151,  1.217
 38940, -9999.000, -9999.000, -9999.000, -9999.000, -9999.000
 39000,  1.934,  4.267, 24.539,  6.960,  1.167
 39060,  1.987,  4.536, 26.475,  7.375,  1.260
 39120,  1.981,  4.353, 26.301,  7.434,  1.203
 39180,  2.012,  4.403, 26.402,  7.359,  1.235
 39240,  1.960,  4.507, 26.941,  7.373,  1.317
 39300,  1.981,  4.406, 26.677,  7.299,  1.121
 39360,  1.983,  4.419, 27.106,  7.497,  1.249
 39420,  2.002,  4.283, 27.644,  7.392,  1.204
 39480,  1.996,  4.411, 28.453,  7.532,  1.336
 39540,  1.985,  4.425, 27.777,  7.483,  1.421
 39600,  2.007,  4.428, 27.418,  7.275,  1.296
 39660,  2.020,  4.448, 27.853,  7.317,  1.257
 39720,  1.989,  4.359, 28.562,  7.408,  1.304
 39780,  1.982,  4.310, 28.265,  7.242,  1.251
 39840,  1.912,  4.479, 27.382,  6.980,  1.271
 39900,  1.977,  4.329, 27.485,  7.097,  1.184
 39960,  1.959,  4.105, 25.626,  6.973,  1.133
 40020,  1.937,  4.287, 26.430,  7.180,  1.187
 40080,  1.970,  4.157, 25.977,  7.007,  1.097
 40140,  1.979,  4.238, 25.930,  7.006,  1.166
 40200,  1.949,  4.328, 25.743,  7.188,  1.078
 40260,  1.965,  3.993, 24.445,  7.113,  1.153
 40320,  1.973,  4.151, 24.726,  7.017,  1.116
 40380,  1.934,  3.992, 25.864,  6.764,  1.068
 40440,  1.916,  4.323, 25.931,  6.702,  1.101
 40500,  1.971,  4.063, 26.155,  6.925,  1.050
 40560,  2.007,  3.975, 25.035,  7.072,  1.235
 40620,  1.939,  4.005, 24.075,  6.839,  1.027
 40680,  1.950,  3.686, 23.644,  6.828,  1.026
 40740,  2.024,  4.222, 24.872,  6.857,  1.034
 40800,  2.040,  4.416, 22.161,  6.262,  0.965
 40860,  1.929,  3.820, 23.171,  6.622,  1.020
 40920,  1.923,  3.701, 23.537,  6.796,  1.014
 40980,  1.991,  3.868, 23.458,  6.899,  1.088
 41040,  2.020,  3.896, 23.762,  6.827,  0.977
 41100,  1.991,  3.952, 25.085,  6.585,  1.066
 41160,  2.016,  3.956, 25.095,  6.807,  1.182
 41220,  2.009,  4.055, 24.486,  6.723,  1.112
 41280,  1.999,  4.192, 25.219,  6.598,  1.140
 41340,  1.987,  3.677, 24.362,  6.810,  1.096
 41400,  1.995,  3.938, 24.930,  6.840,  1.093
 41460,  2.064,  4.015, 26.526,  6.936,  1.126
 41520,  1.986,  4.101, 26.160,  6.850,  1.058
 41580,  2.011,  4.071, 25.668,  7.054,  1.091
 41640,  2.019,  4.164, 24.855,  7.012,  0.999
 41700,  2.011,  3.866, 25.681,  7.071,  1.082
 41760,  2.015,  4.033, 25.218,  7.235,  1.008
 41820,  2.047,  4.333, 25.507,  7.124,  1.080
 41880,  2.007,  4.134, 25.275,  7.123,  1.057
 41940,  1.998,  4.057, 24.987,  7.202,  1.120
 42000,  2.028,  4.128, 24.888,  7.096,  1.112
 42060,  2.020,  4.426, 25.698,  7.477,  1.153
 42120,  2.005,  4.100, 25.855,  7.364,  1.116
 42180,  2.005,  4.221, 25.519,  7.349,  1.080
 42240,  2.013,  4.103, 24.552,  7.258,  1.159
 42300,  2.011,  4.309, 24.573,  7.111,  1.074
 42360,  2.044,  3.979, 24.585,  7.238,  1.118
 42420,  2.040,  4.165, 25.183,  7.402,  1.086
 42480,  1.996,  4.275, 26.278,  7.323,  1.055
 42540,  1.930,  4.284, 25.494,  7.068,  1.147
 42600,  1.868,  4.626, 23.814,  6.604,  0.994
 42660,  2.285,  3.471, 20.151,  6.363,  0.210
 42720,  1.951,  3.941, 21.915,  6.581,  0.975
 42780,  1.943,  4.137, 24.371,  6.761,  1.086
 42840,  1.976,  4.349, 24.800,  6.725,  1.041
 42900,  1.993,  4.007, 24.324,  6.816,  1.022
 42960,  1.996,  3.902, 23.884,  6.976,  1.084
 43020,  2.009,  4.035, 24.547,  7.256,  1.147
 43080,  2.012,  3.893, 24.841,  7.135,  0.983
 43140,  2.008,  4.116, 25.322,  7.046,  1.126
 43200,  2.074,  3.879, 24.669,  7.222,  1.184
 43260,  2.038,  3.966, 24.502,  6.939,  1.079
 43320,  2.077,  3.873, 24.448,  7.202,  1.220
 43380,  2.077,  3.992, 25.272,  7.053,  1.073
 43440,  2.062,  3.930, 24.760,  6.962,  1.076
 43500,  2.008,  3.999, 25.047,  6.818,  1.127
 43560,  2.039,  3.763, 25.799,  7.045,  1.092
 43620,  2.011,  3.758, 25.392,  6.555,  1.165
 43680,  1.949,  3.830, 25.305,  6.794,  1.049
 43740,  2.089,  3.627, 26.311,  6.995,  1.249
 43800,  2.123,  3.729, 26.460,  7.205,  1.241
 43860,  2.100,  3.477, 25.253,  7.061,  1.184
 43920,  2.075,  3.679, 25.698,  6.980,  1.252
 43980,  2.054,  3.772, 25.335,  6.921,  1.193
 44040,  2.062,  3.729, 25.911,  7.065,  1.136
 44100,  2.088,  3.963, 25.409,  7.187,  1.192
 44160,  2.116,  3.591, 25.969,  7.297,  1.214
 44220,  2.139,  3.734, 24.541,  7.343,  1.228
 44280,  2.040,  3.613, 24.918,  7.172,  1.127
 44340,  2.083,  3.527, 25.487,  6.933,  1.173
 44400,  2.074,  3.799, 24.308,  6.830,  1.132
 44460,  1.956,  3.775, 26.105,  6.576,  1.353
 44520,  2.004,  3.700, 22.882,  6.470,  1.159
 44580,  2.036,  3.548, 24.746,  6.646,  1.086
 44640,  2.034,  3.562, 24.517,  6.926,  1.165
 44700,  2.074,  3.585, 24.295,  6.809,  1.204
 44760,  2.061,  3.692, 24.836,  6.899,  1.168
 44820,  2.067,  3.925, 25.388,  7.159,  1.218
 44880,  2.117,  3.742, 26.093,  7.236,  1.215
 44940,  2.140,  3.670, 24.651,  7.193,  1.269
 45000,  2.130,  3.436, 24.023,  6.986,  1.251
 45060,  2.126,  3.820, 25.397,  7.075,  1.174
 45120,  2.069,  3.395, 25.166,  7.127,  1.147
 45180,  2.102,  3.662, 26.301,  7.047,  1.226
 45240,  2.149,  3.715, 25.627,  6.861,  1.257
 45300,  2.128,  3.715, 25.262,  7.138,  1.229
 45360,  2.102,  3.396, 24.323,  7.023,  1.305
 45420,  2.126,  3.716, 25.309,  6.911,  1.229
 45480,  2.161,  3.715, 25.893,  7.046,  1.292
 45540,  2.175,  3.839, 25.711,  7.181,  1.183
 45600,  2.198,  3.734, 25.945,  7.100,  1.146
 45660,  2.202,  3.470, 25.955,  7.178,  1.159
 45720,  2.112,  3.822, 25.684,  6.937,  1.155
 45780,  2.115,  3.698, 25.856,  6.931,  1.179
 45840,  2.152,  3.454, 25.860,  7.055,  1.202
 45900,  2.120,  3.594, 25.298,  6.950,  1.205
 45960,  2.166,  3.633, 26.371,  7.040,  1.148
 46020,  2.185,  3.653, 24.916,  6.954,  1.164
 46080,  2.172,  3.756, 25.691,  6.917,  1.088
 46140,  2.180,  3.625, 26.237,  6.989,  1.104
 46200,  2.202,  3.789, 26.362,  7.187,  1.293
 46260,  2.224,  3.638, 26.378,  7.022,  1.089
 46320, -9999.000, -9999.000, -9999.000, -9999.000, -9999.000
 46380,  2.090,  3.813, 22.110,  6.570,  1.061
 46440,  2.195,  3.477, 23.668,  6.850,  1.108
 46500,  2.218,  3.742, 24.183,  7.054,  1.179
 46560,  2.224,  3.957, 25.350,  7.053,  1.216
 46620,  2.253,  3.575, 25.050,  6.758,  1.135
 46680,  2.251,  3.523, 24.835,  7.073,  1.136
 46740,  2.246,  3.874, 26.056,  7.071,  1.218
 46800,  2.263,  3.953, 26.802,  7.236,  1.314
 46860,  2.326,  4.561, 26.947,  7.532,  1.664
 46920,  2.554,  5.109, 29.408,  8.252,  1.990
 46980,  2.522,  4.791, 28.904,  8.236,  1.791
 47040,  2.454,  4.668, 28.609,  7.793,  1.601
 47100,  2.430,  4.528, 28.990,  7.577,  1.605
 47160,  2.394,  4.292, 29.528,  7.553,  1.551
 47220,  2.387,  4.205, 27.454,  7.560,  1.337
 47280,  2.346,  4.184, 27.371,  7.232,  1.465
 47340,  2.318,  4.000, 27.950,  7.010,  1.398
 47400,  2.353,  3.909, 28.655,  7.015,  1.306
 47460,  2.272,  4.201, 29.360,  6.826,  1.274
 47520,  2.288,  4.062, 27.221,  6.709,  1.311
 47580,  2.325,  4.093, 27.374,  6.809,  1.373
 47640,  2.289,  3.976, 26.135,  6.478,  1.220
 47700,  2.309,  4.088, 27.198,  6.977,  1.442
 47760,  2.350,  3.919, 26.567,  6.798,  1.396
 47820,  2.357,  3.951, 26.218,  6.882,  1.268
 47880,  2.380,  3.964, 26.959,  6.683,  1.383
 47940,  2.295,  3.768, 25.880,  6.653,  1.344
 48000,  2.369,  3.713, 26.516,  6.775,  1.333
 48060,  2.415,  3.998, 26.844,  6.584,  1.272
 48120,  2.374,  3.901, 27.187,  6.673,  1.353
 48180, -9999.000, -9999.000, -9999.000, -9999.000, -9999.000
 48240,  2.351,  3.756, 24.089,  6.371,  1.130
 48300,  2.417,  3.812, 25.046,  6.719,  1.304
 48360,  2.375,  3.590, 25.437,  6.561,  1.224
 48420,  2.379,  3.758, 25.606,  6.723,  1.337
 48480,  2.412,  4.083, 27.401,  6.502,  1.376
 48540,  2.401,  3.525, 25.314,  6.497,  1.340
 48600,  2.516,  3.681, 25.913,  6.622,  1.290
 48660,  2.504,  3.650, 26.631,  6.615,  1.193
 48720,  2.537,  3.907, 27.376,  6.470,  1.407
 48780,  2.529,  3.778, 28.651,  6.783,  1.274
 48840,  2.542,  3.928, 28.393,  6.406,  1.275
 48900,  2.514,  3.898, 28.170,  6.661,  1.306
 48960,  2.509,  3.813, 26.297,  6.438,  1.252
 49020,  2.535,  3.928, 27.546,  6.476,  1.280
 49080,  2.582,  4.026, 27.373,  6.283,  1.332
 49140,  2.567,  3.878, 26.657,  6.487,  1.299
 49200,  2.616,  3.878, 26.501,  6.602,  1.359
 49260,  2.547,  4.141, 25.892,  6.531,  1.347
 49320,  2.629,  4.162, 25.799,  6.775,  1.292
 49380,  2.691,  4.196, 26.085,  6.745,  1.403
 49440,  2.689,  4.409, 26.937,  6.682,  1.372
 49500,  2.678,  4.253, 26.777,  6.602,  1.357
 49560,  2.738,  4.312, 27.230,  6.781,  1.471
 49620,  2.701,  3.910, 26.995,  6.664,  1.369
 49680,  2.741,  4.177, 28.069,  6.768,  1.350
 49740,  2.788,  4.218, 28.050,  6.636,  1.393
 49800,  2.850,  4.214, 29.272,  6.713,  1.440
 49860,  2.841,  4.261, 29.339,  6.935,  1.389
 49920,  2.819,  4.411, 29.765,  6.888,  1.387
 49980,  2.826,  4.344, 28.001,  6.978,  1.479
 50040, -9999.000, -9999.000, -9999.000, -9999.000, -9999.000
 50100,  2.811,  4.340, 26.280,  6.437,  1.386
 50160,  2.855,  4.433, 26.793,  6.736,  1.311
 50220,  2.875,  4.546, 26.910,  6.906,  1.435
 50280,  2.896,  4.754, 26.677,  6.742,  1.508
 50340,  2.958,  4.883, 25.857,  6.691,  1.531
 50400,  2.965,  4.854, 25.901,  6.856,  1.566
 50460,  3.043,  4.892, 27.740,  6.994,  1.537
 50520,  3.034,  5.066, 27.161,  6.868,  1.532
 50580,  3.090,  4.916, 27.310,  7.055,  1.467
 50640,  3.176,  5.462, 28.367,  7.262,  1.667
 50700,  3.222,  5.494, 28.340,  7.039,  1.743
 50760,  3.225,  5.677, 28.055,  7.454,  1.570
 50820,  3.256,  5.806, 28.760,  7.270,  1.843
 50880,  3.252,  6.028, 29.223,  7.332,  1.694
 50940,  3.248,  6.039, 28.433,  7.206,  1.746
 51000,  3.232,  6.279, 29.599,  7.290,  1.767
 51060,  3.285,  6.023, 28.492,  7.244,  1.691
 51120,  3.323,  6.369, 29.445,  7.381,  1.744
 51180,  3.340,  6.615, 30.117,  7.366,  1.779
 51240,  3.427,  7.029, 30.779,  7.286,  1.768
 51300,  3.400,  7.089, 31.140,  7.418,  1.808
 51360,  3.498,  7.214, 32.098,  7.398,  1.830
 51420,  3.507,  7.887, 31.225,  7.556,  1.880
 51480,  3.535,  7.610, 32.049,  7.414,  1.821
 51540,  3.647,  7.615, 31.887,  7.676,  1.863
 51600,  3.704,  7.489, 32.549,  7.751,  1.833
 51660,  3.693,  7.625, 34.157,  7.656,  1.806
 51720,  3.692,  8.491, 33.196,  7.608,  2.023
 51780,  3.642,  8.522, 33.666,  7.781,  1.952
 51840,  3.669,  8.823, 32.619,  7.702,  1.869
 51900,  3.656,  7.773, 26.896,  7.180,  1.725
 51960,  3.720,  8.704, 27.816,  7.330,  1.827
 52020,  3.853,  9.298, 29.483,  7.646,  1.936
 52080,  3.884,  9.449, 31.447,  7.854,  1.985
 52140,  3.925,  9.885, 30.239,  7.672,  2.080
 52200,  3.899,  9.644, 30.460,  7.840,  2.013
 52260,  4.023, 10.452, 31.106,  7.989,  2.216
 52320,  4.142, 10.340, 31.335,  7.892,  2.153
 52380,  4.147, 10.233, 31.417,  8.000,  2.165
 52440,  4.128, 10.107, 32.485,  7.881,  2.246
 52500,  4.093, 10.183, 33.227,  7.736,  2.154
 52560,  4.039,  9.821, 31.682,  7.817,  1.994
 52620,  4.054,  9.641, 30.797,  7.749,  2.007
 52680,  4.047,  9.245, 31.911,  7.677,  2.066
 52740,  4.150,  9.463, 31.692,  7.498,  1.882
 52800,  4.118,  9.707, 32.920,  7.564,  1.871
 52860,  4.101,  9.759, 32.126,  7.351,  1.968
 52920,  4.182, 10.278, 33.229,  7.734,  2.061
 52980,  4.213, 10.917, 32.507,  7.855,  2.024
 53040,  4.200, 10.841, 33.145,  7.592,  2.050
 53100,  4.149, 11.535, 33.887,  7.603,  2.008
 53160,  4.213, 11.214, 33.575,  7.353,  2.020
 53220,  4.133, 10.236, 30.143,  7.232,  1.975
 53280,  4.145,  9.432, 29.375,  7.294,  1.797
 53340,  4.181,  9.145, 28.590,  7.215,  1.744
 53400,  4.224,  9.705, 30.189,  7.511,  1.862
 53460,  4.207, 10.399, 32.314,  7.371,  1.931
 53520,  4.125,  9.584, 29.472,  7.036,  1.783
 53580,  4.068,  8.877, 28.705,  7.110,  1.740
 53640,  4.108,  8.800, 29.972,  7.097,  1.836
 53700, -9999.000, -9999.000, -9999.000, -9999.000, -9999.000
 53760,  3.984,  7.986, 25.360,  6.549,  1.772
 53820,  4.026,  8.019, 25.828,  6.992,  1.580
 53880,  4.059,  8.045, 27.945,  6.813,  1.681
 53940,  4.049,  8.569, 27.995,  6.812,  1.657
 54000,  4.201,  8.996, 28.502,  6.862,  1.819
 54060,  4.308,  9.313, 30.516,  7.225,  1.782
 54120,  4.212,  9.354, 29.289,  7.019,  1.799
 54180,  4.183,  8.811, 27.599,  6.897,  1.689
 54240,  4.222,  9.123, 27.434,  6.900,  1.632
 54300,  4.302,  9.393, 27.267,  7.104,  1.640
 54360,  4.343, 10.263, 27.824,  7.307,  1.713
 54420,  4.391, 10.007, 28.025,  7.101,  1.758
 54480,  4.360,  8.524, 26.149,  6.898,  1.584
 54540,  4.277,  9.361, 26.718,  6.977,  1.580
 54600,  4.265,  9.205, 28.971,  6.961,  1.672
 54660,  4.410,  9.920, 27.003,  7.024,  1.649
 54720,  4.370, 10.170, 28.057,  7.003,  1.693
 54780,  4.424, 10.758, 26.717,  7.066,  1.720
 54840,  4.499, 10.333, 27.498,  7.275,  1.697
 54900,  4.586, 10.491, 27.259,  7.159,  1.706
 54960,  4.561, 10.350, 29.018,  7.441,  1.840
 55020,  4.547, 10.216, 29.187,  7.371,  1.813
 55080,  4.693, 10.417, 27.710,  7.468,  1.819
 55140,  4.752, 11.310, 29.068,  7.568,  1.839
 55200,  4.614, 10.553, 28.923,  7.569,  1.780
 55260,  4.528, 10.522, 29.129,  7.364,  1.909
 55320,  4.405,  9.163, 25.846,  7.160,  1.633
 55380,  4.449,  9.538, 26.607,  7.150,  1.612
 55440,  4.401,  9.875, 26.776,  7.095,  1.553
 55500,  4.426, 10.177, 26.414,  7.065,  1.568
 55560, -9999.000, -9999.000, -9999.000, -9999.000, -9999.000
 55620,  4.409, 11.162, 22.798,  6.919,  1.425
 55680,  4.395, 10.048, 23.832,  7.101,  1.471
 55740,  4.478, 10.818, 24.679,  7.243,  1.466
 55800,  4.589, 10.989, 24.322,  7.236,  1.501
 55860,  4.486, 10.906, 24.699,  7.126,  1.491
 55920,  4.555, 10.662, 24.270,  7.128,  1.555
 55980,  4.657, 11.427, 23.302,  7.242,  1.573
 56040,  4.624, 11.672, 23.104,  6.975,  1.466
 56100,  4.751, 12.615, 22.551,  7.040,  1.433
 56160,  4.973, 13.704, 23.649,  7.155,  1.472
 56220,  5.156, 15.072, 22.389,  7.223,  1.526
 56280,  5.295, 15.464, 24.164,  7.155,  1.522
 56340,  5.229, 15.802, 25.822,  7.431,  1.410
 56400,  5.379, 16.673, 23.800,  7.078,  1.404
 56460,  5.545, 17.507, 25.029,  7.337,  1.395
 56520,  5.561, 17.608, 24.808,  7.223,  1.424
 56580,  5.567, 17.135, 25.038,  7.361,  1.544
 56640,  5.744, 17.440, 24.833,  7.224,  1.449
 56700,  5.735, 17.392, 24.847,  7.283,  1.443
 56760,  5.736, 17.011, 24.757,  7.255,  1.373
 56820,  5.773, 16.834, 25.085,  7.285,  1.429
 56880,  5.890, 17.464, 24.809,  7.271,  1.488
 56940,  5.890, 17.062, 24.804,  7.306,  1.387
 57000,  5.914, 17.331, 23.943,  7.295,  1.202
 57060,  6.040, 16.887, 25.214,  7.499,  1.341
 57120,  5.985, 17.972, 28.454,  7.350,  1.524
 57180,  6.316, 18.307, 27.056,  6.891,  1.361
 57240,  6.249, 18.605, 25.862,  6.375,  1.347
 57300,  6.408, 19.035, 27.693,  6.455,  1.356
 57360,  6.625, 19.654, 27.240,  7.026,  1.487
 57420, -9999.000, -9999.000, -9999.000, -9999.000, -9999.000
 57480,  6.684, 20.102, 24.631,  6.605,  1.347
 57540,  6.856, 20.686, 24.923,  7.013,  1.457
 57600,  6.956, 19.907, 26.323,  6.970,  1.339
 57660,  7.002, 20.449, 27.280,  7.015,  1.271
 57720,  6.894, 20.529, 27.606,  6.828,  1.385
 57780,  6.893, 20.529, 28.270,  7.175,  1.344
 57840,  7.155, 20.766, 26.853,  6.899,  1.447
 57900,  7.226, 20.811, 29.288,  7.133,  1.481
 57960,  7.381, 21.528, 28.571,  6.982,  1.407
 58020,  7.447, 22.020, 28.110,  6.977,  1.482
 58080,  7.295, 22.172, 31.250,  6.892,  1.547
 58140,  7.651, 22.789, 27.229,  7.250,  1.282
 58200,  7.939, 24.696, 26.043,  7.513,  1.300
 58260,  8.021, 25.249, 26.968,  7.309,  1.384
 58320,  8.289, 25.589, 27.905,  7.575,  1.231
 58380,  8.301, 25.259, 28.536,  7.389,  1.230
 58440,  8.365, 25.732, 30.125,  7.486,  1.332
 58500,  8.168, 25.745, 30.420,  7.500,  1.436
 58560,  8.418, 26.719, 27.735,  7.394,  1.234
 58620,  8.843, 27.460, 29.453,  7.599,  1.306
 58680,  8.851, 27.678, 30.184,  7.762,  1.317
 58740,  9.043, 27.823, 29.166,  7.541,  1.267
 58800,  9.043, 27.986, 29.121,  7.509,  1.226
 58860,  9.252, 27.548, 30.012,  7.402,  1.193
 58920,  9.230, 28.138, 29.060,  7.297,  1.261
 58980,  9.299, 27.413, 29.370,  7.380,  1.158
 59040,  9.481, 28.395, 29.569,  7.722,  1.192
 59100,  9.501, 28.164, 29.963,  7.407,  1.172
 59160,  9.501, 27.472, 30.875,  7.511,  1.173
 59220,  9.427, 28.270, 30.843,  7.646,  1.304
 59280,  9.307, 30.388, 27.809,  7.739,  1.349
 59340,  9.652, 28.458, 29.816,  7.356,  1.282
 59400, 10.133, 27.793, 28.309,  7.568,  1.201
 59460, 10.235, 28.924, 29.515,  7.901,  1.208
 59520,  9.903, 28.023, 31.195,  7.506,  1.317
 59580, 10.206, 28.723, 30.428,  7.538,  1.161
 59640, 10.422, 29.190, 31.259,  7.822,  1.385
 59700, 10.170, 28.609, 31.204,  7.782,  1.223
 59760,  9.771, 27.960, 31.908,  7.581,  1.176
 59820,  9.932, 27.980, 32.692,  7.525,  1.389
 59880, 10.677, 28.980, 31.725,  7.791,  1.290
 59940, 10.245, 28.824, 34.110,  7.687,  1.201
 60000, 10.336, 28.302, 35.356,  7.696,  1.314
 60060, 10.370, 28.153, 34.181,  7.696,  1.211
 60120, 10.439, 28.451, 35.678,  7.833,  1.361
 60180, 10.838, 30.459, 34.743,  7.931,  1.323
 60240, 10.469, 28.926, 34.900,  7.704,  1.315
 60300,  9.731, 27.522, 35.804,  7.530,  1.269
 60360,  9.839, 27.651, 36.286,  7.573,  1.193
 60420,  9.959, 26.878, 35.947,  7.493,  1.295
 60480, 10.021, 26.046, 34.603,  7.646,  1.204
 60540, 10.126, 27.091, 36.714,  7.528,  1.204
 60600,  9.845, 27.484, 36.871,  7.327,  1.201
 60660,  9.760, 27.654, 36.898,  7.651,  1.200
 60720,  9.803, 28.515, 38.811,  7.496,  1.170
 60780, 10.480, 28.753, 37.364,  7.497,  1.224
 60840,  9.595, 27.587, 38.485,  7.212,  1.075
 60900,  8.680, 25.312, 38.573,  6.880,  1.006
 60960,  7.636, 24.104, 41.018,  6.441,  1.082
 61020,  5.917, 19.980, 39.311,  5.782,  0.883
 61080,  5.615, 19.556, 39.326,  5.200,  0.793
 61140,  4.983, 16.932, 30.104,  4.443,  0.240
 61200,  5.518, 18.528, 34.374,  5.238,  0.654
 61260,  5.717, 19.779, 36.661,  5.381,  0.762
 61320,  5.932, 20.799, 37.362,  5.619,  0.824
 61380,  6.043, 21.184, 39.881,  5.803,  0.801
 61440,  6.551, 23.432, 41.293,  6.068,  0.938
 61500,  7.412, 25.657, 41.343,  6.323,  1.008
 61560,  8.263, 26.360, 43.136,  6.568,  1.068
 61620,  6.936, 22.524, 44.201,  6.451,  1.084
 61680,  6.438, 21.962, 44.730,  6.063,  0.895
 61740,  5.051, 17.763, 44.194,  5.477,  0.861
 61800,  4.575, 17.119, 44.183,  5.334,  0.730
 61860,  4.401, 17.196, 44.378,  5.162,  0.711
 61920,  4.293, 15.966, 44.540,  5.082,  0.687
 61980,  4.285, 15.910, 42.823,  5.116,  0.705
 62040,  4.529, 16.867, 43.806,  5.074,  0.876
 62100,  4.599, 17.109, 43.002,  5.196,  0.812
 62160,  4.453, 15.613, 41.578,  5.023,  0.665
 62220,  4.270, 15.157, 42.874,  5.133,  0.757
 62280,  4.270, 15.423, 42.839,  5.197,  0.710
 62340,  4.289, 15.905, 40.231,  5.099,  0.706
 62400,  4.458, 16.131, 40.349,  5.022,  0.832
 62460,  4.443, 14.681, 36.668,  5.047,  0.572
 62520,  4.570, 14.625, 41.870,  5.277,  0.698
 62580,  4.707, 16.045, 42.250,  5.112,  0.792
 62640,  4.200, 12.237, 36.367,  5.028,  0.597
 62700,  4.555, 13.147, 39.198,  4.936,  0.572
 62760,  4.752, 14.043, 41.472,  5.168,  0.720
 62820,  4.924, 15.647, 43.294,  5.002,  0.678
 62880,  4.860, 15.794, 43.302,  5.122,  0.691
 62940,  4.975, 14.861, 41.219,  4.721,  0.713
 63000,  4.296, 13.458, 35.612,  5.027,  0.699
 63060,  4.223, 10.996, 34.040,  4.860,  0.616
 63120,  4.449, 10.969, 31.869,  5.126,  0.497
 63180,  4.780, 11.462, 32.705,  5.080,  0.571
 63240,  4.857, 11.626, 31.519,  5.064,  0.565
 63300,  4.980, 11.758, 31.662,  5.240,  0.648
 63360,  4.890, 12.017, 32.428,  5.089,  0.589
 63420,  4.796, 12.870, 34.399,  5.030,  0.645
 63480,  4.712, 13.029, 33.393,  4.936,  0.546
 63540,  4.508, 13.335, 36.784,  5.020,  0.605
 63600,  4.147, 11.807, 37.171,  4.846,  0.624
 63660,  4.005, 11.406, 35.623,  4.707,  0.588
 63720,  4.083, 11.250, 37.643,  4.814,  0.592
 63780,  4.304, 13.383, 37.981,  4.848,  0.610
 63840,  4.571, 14.784, 39.676,  4.621,  0.664
 63900,  4.572, 15.369, 39.394,  4.786,  0.733
 63960,  4.744, 14.371, 41.098,  4.740,  0.695
 64020,  4.769, 14.692, 41.522,  4.930,  0.736
 64080,  4.856, 13.926, 43.132,  4.871,  0.606
 64140,  4.862, 13.088, 42.198,  4.781,  0.628
 64200,  4.925, 14.424, 41.564,  4.825,  0.608
 64260,  5.239, 13.941, 41.398,  4.920,  0.646
 64320,  5.263, 14.669, 40.704,  5.002,  0.642
 64380,  5.429, 13.676, 40.700,  5.117,  0.623
 64440,  5.410, 15.418, 43.438,  5.079,  0.644
 64500,  5.274, 12.979, 39.127,  5.025,  0.751
 64560,  5.214, 11.041, 36.748,  5.318,  0.547
 64620,  5.261, 10.787, 36.306,  5.264,  0.588
 64680,  5.512, 12.447, 37.774,  5.278,  0.559
 64740,  5.637, 12.983, 40.569,  5.201,  0.631
 64800, -9999.000, -9999.000, -9999.000, -9999.000, -9999.000
 64860,  5.799, 14.092, 36.628,  5.270,  0.509
 64920,  5.970, 15.067, 42.203,  5.173,  0.711
 64980,  5.941, 14.600, 41.246,  5.175,  0.583
 65040,  5.694, 15.041, 41.351,  5.414,  0.680
 65100,  5.319, 11.376, 35.761,  5.184,  0.628
 65160,  4.985,  9.387, 33.822,  5.218,  0.472
 65220,  4.919,  9.620, 31.399,  5.286,  0.520
 65280,  4.769,  8.862, 30.036,  5.452,  0.576
 65340,  4.742,  9.157, 29.991,  5.468,  0.476
 65400,  4.847,  9.684, 29.664,  5.457,  0.416
 65460,  5.083,  9.471, 29.802,  5.440,  0.538
 65520,  5.087,  9.628, 29.196,  5.516,  0.497
 65580,  4.417,  9.009, 29.184,  5.398,  0.461
 65640,  4.055,  7.719, 27.025,  5.259,  0.447
 65700,  4.053,  7.683, 24.821,  5.323,  0.448
 65760,  4.067,  6.987, 25.873,  5.355,  0.469
 65820,  4.102,  7.147, 24.841,  5.490,  0.488
 65880,  4.223,  8.577, 27.183,  5.447,  0.493
 65940,  4.218,  8.573, 27.002,  5.125,  0.530
 66000,  4.113,  7.601, 25.244,  5.355,  0.413
 66060,  4.080,  6.866, 22.815,  5.367,  0.414
 66120,  4.154,  7.053, 24.112,  5.356,  0.399
 66180,  4.081,  6.453, 22.365,  5.381,  0.391
 66240,  4.004,  6.346, 22.536,  5.696,  0.435
 66300,  4.144,  7.086, 23.322,  5.560,  0.458
 66360,  4.651,  9.301, 25.204,  5.313,  0.467
 66420,  5.288, 10.626, 31.758,  5.302,  0.430
 66480,  5.344, 10.825, 34.626,  5.284,  0.376
 66540,  5.327, 10.686, 35.521,  5.620,  0.426
 66600,  5.416, 10.959, 35.415,  5.730,  0.374
 66660, -9999.000, -9999.000, -9999.000, -9999.000, -9999.000
 66720,  5.161,  8.504, 31.338,  5.661,  0.335
 66780,  5.366, 10.056, 33.244,  5.734,  0.319
 66840,  6.121, 13.253, 38.180,  5.619,  0.417
 66900,  6.094, 13.123, 39.764,  5.659,  0.393
 66960,  5.951, 13.258, 40.624,  5.412,  0.404
 67020,  5.961, 13.415, 41.999,  5.605,  0.379
 67080,  6.038, 12.953, 41.600,  5.519,  0.433
 67140,  6.021, 13.191, 41.383,  5.607,  0.507
 67200,  6.113, 12.077, 41.658,  5.460,  0.474
 67260,  6.271, 12.950, 43.236,  5.591,  0.446
 67320,  6.177, 13.000, 42.106,  5.412,  0.406
 67380,  5.851, 11.012, 42.585,  5.300,  0.389
 67440,  5.825, 11.050, 40.031,  5.216,  0.431
 67500,  5.699, 10.738, 39.603,  5.259,  0.410
 67560,  5.560, 10.227, 39.518,  5.393,  0.410
 67620,  5.469,  9.638, 38.790,  5.467,  0.355
 67680,  5.159,  7.756, 34.951,  5.705,  0.337
 67740,  5.132,  8.211, 33.535,  5.475,  0.317
 67800,  5.095,  8.143, 34.577,  5.713,  0.357
 67860,  5.322,  9.148, 35.704,  5.576,  0.389
 67920,  5.574, 10.011, 36.138,  5.533,  0.406
 67980,  5.712,  9.592, 37.022,  5.557,  0.409
 68040,  6.307, 10.330, 38.053,  5.939,  0.350
 68100,  6.057, 10.987, 38.298,  5.730,  0.483
 68160,  5.896, 10.640, 37.540,  5.538,  0.354
 68220,  5.625,  9.260, 34.868,  5.815,  0.311
 68280,  5.444,  8.659, 33.825,  5.838,  0.427
 68340,  5.187,  7.856, 31.181,  5.791,  0.342
 68400,  5.175,  7.519, 32.027,  5.697,  0.356
 68460,  5.274,  8.404, 30.983,  5.166,  0.385
 68520, -9999.000, -9999.000, -9999.000, -9999.000, -9999.000
 68580,  5.356,  9.686, 30.980,  5.261,  0.392
 68640,  5.624, 10.136, 34.437,  5.554,  0.320
 68700,  5.838, 10.779, 34.840,  5.335,  0.336
 68760,  5.871, 10.839, 35.370,  5.704,  0.378
 68820,  5.662,  9.442, 34.990,  5.463,  0.372
 68880,  5.459,  9.283, 35.942,  5.209,  0.393
 68940,  5.536,  9.834, 36.108,  5.269,  0.322
 69000,  5.710, 11.243, 37.350,  5.306,  0.448
 69060,  5.827, 10.408, 37.723,  5.199,  0.355
 69120,  5.725,  8.109, 34.051,  5.479,  0.327
 69180,  5.636,  9.009, 35.037,  5.225,  0.349
 69240,  5.754,  8.707, 34.983,  5.526,  0.366
 69300,  5.882,  7.127, 31.596,  5.895,  0.358
 69360,  5.920,  9.163, 33.335,  5.856,  0.406
 69420,  6.024,  8.737, 31.798,  5.694,  0.368
 69480,  6.033, 10.081, 33.733,  5.687,  0.382
 69540,  5.526,  9.382, 35.650,  5.257,  0.366
 69600,  5.512, 10.050, 37.661,  5.105,  0.324
 69660,  5.522,  9.847, 37.150,  5.098,  0.323
 69720,  5.426,  9.668, 36.358,  5.311,  0.384
 69780,  5.332,  9.154, 36.293,  5.268,  0.429
 69840,  5.555,  8.420, 34.843,  5.256,  0.380
 69900,  5.797,  7.170, 32.108,  5.605,  0.307
 69960,  5.894,  7.422, 32.059,  5.411,  0.335
 70020,  6.063,  9.271, 35.673,  5.473,  0.410
 70080,  6.249,  9.633, 38.621,  5.416,  0.398
 70140,  6.361, 10.415, 43.466,  5.408,  0.408
 70200,  6.492, 12.360, 45.783,  5.288,  0.328
 70260,  6.578, 13.234, 52.510,  5.189,  0.437
 70320,  6.511, 14.533, 55.550,  5.131,  0.424
 70380,  6.276, 12.622, 49.687,  5.285,  0.497
 70440,  6.595, 12.459, 48.952,  5.489,  0.476
 70500,  6.713, 11.634, 49.648,  5.146,  0.350
 70560,  6.724, 11.422, 50.558,  5.087,  0.434
 70620,  7.013, 10.191, 49.113,  5.320,  0.350
 70680,  7.056,  9.967, 50.210,  5.340,  0.398
 70740,  7.150,  9.887, 50.525,  5.484,  0.283
 70800,  7.411,  9.714, 48.986,  5.861,  0.407
 70860,  7.376,  9.926, 48.729,  5.816,  0.363
 70920,  7.507, 10.042, 50.564,  5.679,  0.316
 70980,  7.544,  9.756, 50.108,  5.628,  0.284
 71040,  7.784,  9.930, 49.993,  5.706,  0.385
 71100,  7.899,  9.567, 49.778,  5.833,  0.465
 71160,  8.090,  9.281, 47.121,  5.992,  0.365
 71220,  8.187,  8.845, 43.539,  5.985,  0.337
 71280,  8.214,  8.108, 43.020,  6.146,  0.364
 71340,  8.346,  8.575, 40.856,  6.297,  0.371
 71400,  8.256,  6.601, 34.453,  6.788,  0.374
 71460,  8.384,  6.916, 30.910,  6.915,  0.244
 71520,  8.297,  6.098, 27.172,  6.916,  0.248
 71580,  8.470,  6.780, 28.681,  7.143,  0.351
 71640,  8.332,  8.390, 35.066,  6.678,  0.339
 71700,  8.128,  7.676, 37.595,  6.732,  0.383
 71760,  7.941,  8.794, 37.770,  6.386,  0.376
 71820,  8.446, 10.210, 40.427,  6.340,  0.340
 71880,  9.312,  9.686, 41.232,  6.440,  0.399
 71940,  9.272,  9.566, 40.557,  6.221,  0.342
 72000,  9.667,  9.075, 39.769,  5.941,  0.343
 72060, 10.290,  8.910, 39.701,  6.401,  0.358
 72120, 10.381,  8.599, 39.865,  6.270,  0.291
 72180, -9999.000, -9999.000, -9999.000, -9999.000, -9999.000
 72240,  9.292,  9.142, 36.892,  6.145,  0.368
 72300,  9.134, 10.297, 41.568,  5.953,  0.380
 72360,  9.178, 10.764, 45.668,  6.043,  0.336
 72420,  8.509, 11.198, 50.257,  5.749,  0.361
 72480,  7.826, 10.415, 53.344,  5.224,  0.381
 72540,  7.314, 10.748, 57.624,  5.116,  0.301
 72600,  7.026, 10.697, 59.460,  5.036,  0.342
 72660,  7.214, 11.369, 61.578,  5.026,  0.365
 72720,  8.059, 11.022, 60.295,  5.248,  0.404
 72780,  8.743, 10.957, 54.089,  5.580,  0.394
 72840,  8.406, 11.810, 54.433,  5.661,  0.322
 72900,  8.085, 11.505, 59.462,  5.400,  0.368
 72960,  8.090, 11.804, 60.745,  5.281,  0.358
 73020,  8.139, 11.944, 59.976,  5.549,  0.338
 73080,  8.064, 10.805, 58.854,  5.473,  0.343
 73140,  8.440,  9.333, 56.119,  5.357,  0.399
 73200,  8.305,  9.621, 55.459,  5.409,  0.345
 73260,  8.549,  8.995, 52.499,  5.322,  0.363
 73320,  8.521,  8.350, 52.274,  5.318,  0.311
 73380,  8.429,  8.847, 52.060,  5.269,  0.405
 73440,  8.300,  8.428, 51.466,  5.281,  0.334
 73500,  7.967,  8.774, 54.401,  5.172,  0.289
 73560,  7.816,  8.662, 55.387,  5.066,  0.319
 73620,  7.585,  8.888, 54.523,  4.835,  0.264
 73680,  7.562,  8.590, 53.304,  4.802,  0.317
 73740,  7.805,  8.606, 56.260,  5.133,  0.309
 73800,  7.625,  8.669, 54.752,  5.101,  0.244
 73860,  7.925,  9.106, 55.370,  5.057,  0.268
 73920,  8.012,  8.922, 56.845,  5.127,  0.312
 73980,  8.344,  8.800, 56.650,  5.122,  0.269
 74040, -9999.000, -9999.000, -9999.000, -9999.000, -9999.000
 74100,  8.005,  8.647, 52.321,  5.334,  0.225
 74160,  8.198,  9.190, 55.821,  5.434,  0.235
 74220,  8.157, 10.099, 57.844,  5.211,  0.363
 74280,  7.929, 10.210, 57.501,  5.164,  0.319
 74340,  7.672,  9.766, 62.126,  4.745,  0.242
 74400,  7.737, 10.182, 66.375,  5.006,  0.353
 74460,  7.737,  9.833, 63.786,  4.727,  0.317
 74520,  7.642, 10.417, 65.325,  4.692,  0.313
 74580,  7.818,  9.988, 62.194,  4.772,  0.331
 74640,  8.024,  9.047, 60.384,  4.884,  0.267
 74700,  7.916, 10.306, 62.540,  4.864,  0.159
 74760,  7.670, 10.654, 68.123,  5.146,  0.241
 74820,  7.559, 11.106, 67.947,  4.781,  0.188
 74880,  7.726, 10.508, 69.159,  4.722,  0.234
 74940,  7.866, 11.089, 69.478,  5.037,  0.231
 75000,  7.905, 10.961, 70.988,  4.906,  0.243
 75060,  7.895, 10.743, 71.435,  4.975,  0.189
 75120,  7.823, 10.361, 69.365,  4.849,  0.200
 75180,  7.723, 10.487, 71.465,  5.020,  0.277
 75240,  7.744, 11.125, 74.608,  4.978,  0.271
 75300,  7.885, 10.946, 71.474,  4.941,  0.203
 75360,  7.850, 10.139, 71.910,  4.918,  0.252
 75420,  7.653, 10.818, 71.648,  4.941,  0.172
 75480,  7.576, 10.665, 70.806,  4.933,  0.251
 75540,  7.455, 10.519, 70.960,  4.526,  0.215
 75600,  7.476, 10.869, 73.871,  4.615,  0.214
 75660,  7.440, 11.334, 72.662,  4.643,  0.198
 75720,  7.429, 11.556, 74.325,  4.881,  0.249
 75780,  7.229, 12.521, 75.171,  4.611,  0.217
 75840,  7.232, 12.240, 76.849,  4.659,  0.181
 75900, -9999.000, -9999.000, -9999.000, -9999.000, -9999.000
 75960,  7.007, 11.276, 64.442,  4.812,  0.155
 76020,  7.205, 11.159, 71.334,  4.851,  0.089
 76080,  7.298, 11.464, 72.596,  4.649,  0.111
 76140,  7.191, 10.824, 75.826,  4.704,  0.135
 76200,  7.253, 11.122, 77.260,  4.701,  0.232
 76260,  7.347, 11.126, 76.966,  4.643,  0.229
 76320,  7.196, 11.026, 75.442,  4.599,  0.215
 76380,  7.420, 10.792, 75.963,  4.791,  0.276
 76440,  7.515, 11.498, 77.378,  4.823,  0.180
 76500,  7.615, 12.040, 80.019,  4.893,  0.185
 76560,  7.622, 12.670, 80.986,  4.865,  0.223
 76620,  7.683, 12.535, 81.418,  4.922,  0.246
 76680,  7.675, 12.113, 83.656,  4.828,  0.233
 76740,  7.554, 12.148, 87.004,  4.975,  0.229
 76800,  7.314, 12.325, 88.664,  4.842,  0.288
 76860,  7.249, 13.019, 86.038,  4.629,  0.279
 76920,  7.121, 12.531, 86.414,  4.738,  0.287
 76980,  7.095, 13.104, 85.535,  4.671,  0.259
 77040,  7.055, 12.416, 86.362,  4.668,  0.260
 77100,  6.597, 13.256, 89.036,  4.470,  0.239
 77160,  6.235, 12.410, 90.377,  4.140,  0.211
 77220,  5.990, 12.669, 93.057,  4.290,  0.243
 77280,  5.931, 12.626, 94.738,  4.469,  0.254
 77340,  5.884, 12.172, 92.894,  4.263,  0.259
 77400,  5.922, 12.470, 90.543,  4.205,  0.239
 77460,  6.095, 12.147, 90.198,  4.375,  0.159
 77520,  6.119, 12.759, 92.500,  4.379,  0.311
 77580,  6.098, 12.097, 92.071,  4.298,  0.238
 77640,  6.121, 12.172, 91.544,  4.304,  0.194
 77700,  6.108, 12.756, 90.740,  4.397,  0.242
 77760,  5.806, 11.217, 78.286,  4.014,  0.297
 77820,  7.141,  9.615, 75.721,  4.491,  0.262
 77880,  7.964,  9.523, 67.846,  4.646,  0.202
 77940,  7.878,  9.465, 67.194,  4.686,  0.255
 78000,  7.799,  9.670, 65.266,  4.595,  0.294
 78060,  7.827,  9.842, 64.125,  4.575,  0.227
 78120,  7.861,  9.940, 65.716,  4.759,  0.261
 78180,  7.969, 10.028, 67.495,  4.809,  0.207
 78240,  8.255, 10.393, 68.142,  4.854,  0.201
 78300,  8.302, 10.227, 65.976,  4.818,  0.213
 78360,  8.332, 10.735, 66.223,  4.856,  0.243
 78420,  8.208, 10.695, 65.207,  4.725,  0.217
 78480,  8.108, 10.940, 66.442,  4.863,  0.245
 78540,  8.012, 11.415, 67.390,  4.603,  0.182
 78600,  7.911, 12.324, 69.035,  4.767,  0.193
 78660,  7.497, 11.044, 67.945,  4.324,  0.230
 78720,  7.489, 10.539, 68.022,  4.626,  0.242
 78780,  7.458, 10.671, 69.977,  4.547,  0.205
 78840,  7.486, 10.689, 69.228,  4.520,  0.140
 78900,  7.415, 10.624, 69.085,  4.491,  0.217
 78960,  7.364, 10.646, 70.773,  4.393,  0.218
 79020,  6.991, 10.115, 68.268,  4.318,  0.161
 79080,  6.971,  9.512, 68.129,  4.234,  0.164
 79140,  6.885,  9.860, 69.087,  4.271,  0.180
 79200,  7.086,  9.701, 67.123,  4.186,  0.145
 79260,  7.075,  9.747, 69.761,  4.378,  0.180
 79320,  7.012, 10.230, 69.656,  4.369,  0.157
 79380,  7.045, 10.265, 70.402,  4.555,  0.160
 79440,  7.128,  9.620, 68.186,  4.356,  0.160
 79500,  6.957,  9.646, 68.799,  4.370,  0.162
 79560,  7.003,  8.657, 74.425,  3.816,  0.120
 79620,  7.025,  9.414, 55.717,  4.556,  0.102
 79680,  7.055,  8.951, 59.620,  4.516,  0.134
 79740,  6.945,  9.568, 63.893,  4.634,  0.081
 79800,  6.548,  9.105, 64.936,  4.349,  0.101
 79860,  6.415,  9.453, 67.902,  4.377,  0.116
 79920,  6.246,  9.871, 69.564,  4.362,  0.133
 79980,  6.088,  9.384, 66.761,  4.294,  0.160
 80040,  5.847,  8.651, 66.077,  4.286,  0.123
 80100,  5.822,  8.989, 67.388,  4.314,  0.114
 80160,  5.770,  8.770, 66.012,  4.045,  0.129
 80220,  5.572,  8.722, 64.591,  4.226,  0.082
 80280,  5.299,  8.960, 64.208,  4.066,  0.134
 80340,  5.108,  9.597, 62.509,  4.046,  0.117
 80400,  4.898,  9.830, 63.133,  4.026,  0.130
 80460,  4.665,  9.943, 60.817,  4.042,  0.072
 80520,  4.524,  9.955, 59.413,  3.625,  0.138
 80580,  4.216,  8.860, 56.116,  3.786,  0.100
 80640,  4.257,  8.578, 55.507,  3.722,  0.093
 80700,  4.206,  8.554, 54.750,  3.931,  0.084
 80760,  4.298,  8.422, 52.608,  3.718,  0.166
 80820,  4.174,  7.702, 52.292,  3.791,  0.086
 80880,  4.124,  7.605, 50.692,  3.722,  0.098
 80940,  4.174,  8.095, 50.862,  3.687,  0.130
 81000,  4.331,  7.407, 49.456,  3.855,  0.024
 81060,  4.303,  8.263, 51.238,  4.034,  0.121
 81120,  4.247,  7.801, 49.455,  3.845,  0.052
 81180,  4.143,  7.368, 49.557,  3.738,  0.092
 81240,  4.139,  7.097, 47.405,  3.737,  0.043
 81300,  4.088,  7.185, 47.603,  3.730,  0.029
 81360,  4.005,  7.731, 46.277,  3.768, -0.029
 81420,  4.103,  7.711, 47.696,  2.827, -0.065
 81480,  4.177,  6.722, 40.906,  3.872,  0.077
 81540,  4.367,  7.015, 42.540,  3.930,  0.051
 81600,  4.377,  7.406, 42.303,  4.080,  0.118
 81660,  4.657,  7.514, 44.567,  4.106,  0.096
 81720,  4.947,  7.649, 44.104,  4.193,  0.119
 81780,  4.776,  7.815, 45.302,  4.131,  0.087
 81840,  4.620,  8.207, 43.260,  4.144,  0.175
 81900,  4.651,  7.920, 42.677,  4.017,  0.106
 81960,  4.644,  8.816, 43.100,  4.110,  0.132
 82020,  4.710,  9.936, 45.360,  4.368,  0.205
 82080,  4.774, 10.067, 44.708,  4.140,  0.190
 82140,  4.855,  9.073, 44.189,  4.197,  0.202
 82200,  4.905,  9.265, 45.986,  4.345,  0.137
 82260,  4.967,  9.151, 46.222,  4.220,  0.220
 82320,  5.001,  9.000, 44.484,  4.408,  0.196
 82380,  5.087,  9.355, 46.655,  4.411,  0.240
 82440,  5.028,  9.870, 45.748,  4.279,  0.186
 82500,  4.930,  9.658, 45.908,  4.543,  0.236
 82560,  4.977,  9.470, 47.350,  4.194,  0.219
 82620,  5.037,  9.321, 46.148,  4.395,  0.227
 82680,  5.036,  9.432, 46.920,  4.466,  0.239
 82740,  5.197,  9.358, 48.300,  4.536,  0.234
 82800,  5.166,  9.755, 46.988,  4.365,  0.317
 82860,  5.146,  9.454, 44.341,  4.377,  0.297
 82920,  5.137,  9.436, 47.405,  4.451,  0.219
 82980,  5.116,  9.664, 46.798,  4.406,  0.290
 83040,  4.936, 10.791, 47.557,  4.300,  0.257
 83100,  5.160,  9.597, 45.873,  4.295,  0.288
 83160,  4.969, 10.996, 48.610,  4.327,  0.367
 83220,  4.840, 10.406, 48.640,  4.620,  0.269
 83280, -9999.000, -9999.000, -9999.000, -9999.000, -9999.000
 83340,  4.651,  9.272, 41.215,  4.192,  0.252
 83400,  4.866, 10.009, 44.541,  4.400,  0.315
 83460,  4.975,  8.565, 44.072,  4.224,  0.325
 83520,  5.180,  8.346, 42.328,  4.095,  0.240
 83580,  5.204,  8.242, 44.851,  4.456,  0.262
 83640,  5.220,  7.885, 45.207,  4.136,  0.224
 83700,  5.366,  7.118, 43.668,  4.278,  0.256
 83760,  5.417,  6.930, 41.793,  4.278,  0.248
 83820,  5.338,  7.201, 42.377,  4.309,  0.190
 83880,  5.267,  7.367, 44.202,  4.172,  0.226
 83940,  5.012,  7.381, 43.766,  4.055,  0.208
 84000,  4.995,  7.928, 47.073,  3.897,  0.213
 84060,  5.197,  7.172, 45.859,  3.943,  0.178
 84120,  5.374,  7.342, 44.936,  3.848,  0.155
 84180,  5.495,  6.941, 46.201,  4.075,  0.151
 84240,  5.634,  6.846, 43.917,  4.432,  0.197
 84300,  5.866,  6.684, 43.471,  4.677,  0.206
 84360,  5.882,  6.655, 41.132,  4.545,  0.121
 84420,  5.714,  7.225, 42.191,  4.463,  0.176
 84480,  5.787,  6.726, 43.087,  4.484,  0.142
 84540,  5.905,  6.792, 42.678,  4.502,  0.136
 84600,  5.938,  6.443, 43.358,  4.518,  0.162
 84660,  5.856,  6.745, 43.359,  4.727,  0.122
 84720,  5.976,  7.021, 42.826,  4.571,  0.196
 84780,  6.233,  7.248, 41.805,  4.769,  0.158
 84840,  6.361,  7.187, 39.849,  4.766,  0.163
 84900,  6.444,  7.401, 40.312,  4.630,  0.166
 84960,  6.216,  7.199, 41.944,  4.878,  0.178
 85020,  6.332,  7.354, 40.669,  4.727,  0.134
 85080,  6.528,  7.338, 41.820,  4.795,  0.158
 85140,  6.430,  6.939, 38.352,  4.284, -0.161
 85200,  6.051,  6.572, 38.465,  4.780,  0.105
 85260,  6.145,  7.299, 38.987,  4.817,  0.166
 85320,  6.135,  7.010, 38.125,  4.620,  0.118
 85380,  6.204,  7.083, 39.378,  4.564,  0.163
 85440,  6.238,  7.763, 39.907,  4.704,  0.176
 85500,  6.217,  7.808, 39.914,  4.845,  0.155
 85560,  6.293,  8.492, 39.863,  4.719,  0.169
 85620,  6.401,  9.070, 41.087,  4.906,  0.182
 85680,  6.324,  7.609, 39.589,  4.717,  0.221
 85740,  6.342,  6.474, 37.710,  4.679,  0.172
 85800,  6.375,  6.650, 36.492,  4.682,  0.152
 85860,  6.509,  6.452, 37.229,  4.803,  0.170
 85920,  6.346,  6.920, 37.098,  4.831,  0.153
 85980,  6.377,  6.599, 36.533,  4.656,  0.118
 86040,  6.335,  6.839, 37.557,  4.646,  0.141
 86100,  6.342,  6.836, 36.955,  4.767,  0.183
 86160,  6.466,  7.411, 37.309,  4.553,  0.181
 86220,  6.391,  7.500, 38.617,  4.768,  0.160
 86280,  6.363,  7.358, 39.390,  4.675,  0.196
 86340,  6.484,  7.844, 38.879,  4.981,  0.204
