34, 1001
Carrie Womack
NOAA Chemical Sciences Laboratory
2B Tech O3 UV Analyzer
USOS
1, 1
2024, 07, 27, 2024, 12, 21
60
Time_Start, seconds_past_midnight, Seconds from midnight UTC
1
1
-9999
O3_ppb, ppb, Ozone from 2B Tech UV Analyzer
1
SPECIAL COMMENTS:
18
PI_CONTACT_INFO: Address: 325 Broadway R/CSL7, Boulder, CO, 80305
PLATFORM: CSL Mobile Lab
LOCATION: Salt Lake City, UT
ASSOCIATED_DATA: N/A
INSTRUMENT_INFO: N/A
DATA_INFO: Units:
UNCERTAINTY: N/A
ULOD_FLAG: -7777
ULOD_VALUE: N/A
LLOD_FLAG: -8888
LLOD_VALUE: N/A
DM_CONTACT_INFO: Data Manager: Nate Howard
PROJECT_INFO: 
STIPULATIONS_ON_USE: Use of these data require prior ok from PI.
OTHER_COMMENTS: N/A
REVISION: R0
R0: Final data. RA: Preliminary Data.  For in-field use only.
Time_Start, O3_ppb
0.0,77.5
60.0,76.2
120.0,78.7
180.0,78.0
240.0,79.6
300.0,78.3
360.0,78.8
420.0,77.8
480.0,76.3
540.0,77.7
600.0,77.1
660.0,75.7
720.0,75.9
780.0,79.4
840.0,78.6
900.0,76.5
960.0,78.1
1020.0,78.8
1080.0,77.0
1140.0,76.9
1200.0,75.5
1260.0,76.7
1320.0,74.8
1380.0,77.3
1440.0,77.8
1500.0,78.1
1560.0,78.4
1620.0,78.4
1680.0,79.0
1740.0,79.1
1800.0,77.0
1860.0,78.0
1920.0,74.9
1980.0,80.3
2040.0,79.9
2100.0,79.1
2160.0,78.4
2220.0,80.4
2280.0,80.2
2340.0,78.3
2400.0,78.3
2460.0,78.4
2520.0,77.9
2580.0,75.7
2640.0,79.7
2700.0,80.0
2760.0,76.9
2820.0,76.5
2880.0,76.2
2940.0,75.6
3000.0,75.6
3060.0,77.8
3120.0,79.0
3180.0,78.5
3240.0,78.9
3300.0,79.7
3360.0,81.1
3420.0,81.0
3480.0,81.0
3540.0,80.0
3600.0,79.6
3660.0,81.5
3720.0,80.7
3780.0,80.8
3840.0,76.8
3900.0,79.0
3960.0,77.3
4020.0,79.0
4080.0,79.2
4140.0,77.5
4200.0,79.3
4260.0,80.6
4320.0,79.9
4380.0,79.6
4440.0,79.9
4500.0,79.4
4560.0,78.6
4620.0,78.5
4680.0,78.0
4740.0,78.2
4800.0,77.5
4860.0,80.2
4920.0,77.1
4980.0,76.1
5040.0,76.1
5100.0,76.2
5160.0,76.5
5220.0,77.9
5280.0,77.7
5340.0,77.3
5400.0,76.4
5460.0,76.9
5520.0,77.4
5580.0,77.6
5640.0,74.7
5700.0,72.8
5760.0,75.1
5820.0,76.1
5880.0,76.6
5940.0,76.5
6000.0,73.3
6060.0,75.5
6120.0,75.2
6180.0,76.9
6240.0,73.7
6300.0,75.9
6360.0,77.4
6420.0,77.9
6480.0,75.3
6540.0,74.4
6600.0,74.3
6660.0,72.7
6720.0,77.5
6780.0,77.0
6840.0,77.1
6900.0,78.4
6960.0,77.2
7020.0,75.6
7080.0,76.2
7140.0,75.4
7200.0,74.9
7260.0,75.7
7320.0,73.3
7380.0,73.3
7440.0,76.7
7500.0,74.7
7560.0,73.6
7620.0,74.3
7680.0,72.2
7740.0,74.2
7800.0,68.6
7860.0,71.3
7920.0,70.1
7980.0,70.2
8040.0,73.1
8100.0,73.6
8160.0,74.5
8220.0,72.9
8280.0,74.6
8340.0,72.5
8400.0,72.3
8460.0,71.1
8520.0,72.3
8580.0,74.7
8640.0,75.5
8700.0,76.4
8760.0,74.8
8820.0,73.0
8880.0,73.7
8940.0,75.0
9000.0,73.2
9060.0,73.2
9120.0,74.1
9180.0,70.8
9240.0,65.4
9300.0,64.9
9360.0,62.2
9420.0,64.4
9480.0,64.1
9540.0,63.1
9600.0,62.8
9660.0,59.7
9720.0,58.5
9780.0,60.2
9840.0,61.7
9900.0,60.8
9960.0,62.5
10020.0,62.3
10080.0,62.3
10140.0,62.2
10200.0,60.2
10260.0,59.5
10320.0,55.4
10380.0,56.2
10440.0,58.3
10500.0,58.2
10560.0,59.1
10620.0,59.1
10680.0,58.5
10740.0,60.0
10800.0,60.2
10860.0,59.6
10920.0,58.2
10980.0,58.5
11040.0,58.9
11100.0,59.5
11160.0,59.0
11220.0,58.3
11280.0,57.0
11340.0,57.6
11400.0,59.4
11460.0,59.1
11520.0,58.8
11580.0,58.8
11640.0,55.8
11700.0,57.5
11760.0,58.0
11820.0,57.7
11880.0,57.5
11940.0,58.5
12000.0,58.6
12060.0,59.7
12120.0,59.4
12180.0,60.9
12240.0,60.7
12300.0,60.7
12360.0,60.9
12420.0,59.4
12480.0,61.1
12540.0,61.3
12600.0,61.2
12660.0,59.9
12720.0,61.0
12780.0,61.4
12840.0,60.2
12900.0,60.1
12960.0,59.8
13020.0,61.3
13080.0,59.9
13140.0,61.9
13200.0,61.1
13260.0,60.5
13320.0,58.8
13380.0,62.4
13440.0,62.3
13500.0,61.2
13560.0,59.6
13620.0,59.4
13680.0,60.3
13740.0,61.0
13800.0,62.0
13860.0,62.1
13920.0,63.1
13980.0,62.1
14040.0,62.9
14100.0,64.2
14160.0,62.1
14220.0,61.6
14280.0,64.5
14340.0,64.5
14400.0,63.3
14460.0,63.4
14520.0,63.1
14580.0,63.8
14640.0,62.5
14700.0,63.0
14760.0,62.0
14820.0,61.7
14880.0,61.9
14940.0,61.5
15000.0,62.0
15060.0,62.8
15120.0,62.2
15180.0,62.6
15240.0,62.8
15300.0,58.9
15360.0,58.9
15420.0,60.6
15480.0,62.2
15540.0,61.3
15600.0,61.9
15660.0,61.5
15720.0,62.3
15780.0,61.7
15840.0,62.6
15900.0,62.1
15960.0,63.8
16020.0,63.8
16080.0,63.4
16140.0,63.7
16200.0,63.3
16260.0,62.5
16320.0,63.6
16380.0,64.9
16440.0,64.7
16500.0,63.4
16560.0,64.0
16620.0,63.5
16680.0,64.0
16740.0,65.4
16800.0,63.2
16860.0,62.6
16920.0,63.4
16980.0,64.1
17040.0,64.2
17100.0,65.1
17160.0,64.3
17220.0,61.0
17280.0,62.8
17340.0,62.1
17400.0,63.3
17460.0,63.1
17520.0,63.8
17580.0,61.7
17640.0,63.0
17700.0,60.4
17760.0,61.9
17820.0,63.3
17880.0,63.1
17940.0,63.1
18000.0,61.0
18060.0,62.9
18120.0,63.5
18180.0,62.6
18240.0,62.7
18300.0,63.2
18360.0,61.0
18420.0,61.3
18480.0,60.8
18540.0,62.9
18600.0,64.3
18660.0,63.8
18720.0,60.6
18780.0,63.8
18840.0,59.5
18900.0,61.1
18960.0,63.2
19020.0,61.0
19080.0,61.0
19140.0,61.9
19200.0,61.7
19260.0,63.4
19320.0,61.3
19380.0,62.5
19440.0,61.6
19500.0,63.5
19560.0,62.8
19620.0,62.6
19680.0,62.4
19740.0,63.3
19800.0,63.6
19860.0,63.1
19920.0,64.4
19980.0,64.2
20040.0,64.4
20100.0,62.8
20160.0,61.5
20220.0,63.6
20280.0,63.4
20340.0,61.9
20400.0,63.3
20460.0,62.8
20520.0,63.9
20580.0,63.6
20640.0,63.2
20700.0,63.9
20760.0,63.7
20820.0,61.9
20880.0,62.5
20940.0,64.2
21000.0,63.5
21060.0,62.5
21120.0,64.4
21180.0,63.9
21240.0,60.7
21300.0,63.4
21360.0,63.0
21420.0,60.5
21480.0,63.1
21540.0,64.8
21600.0,61.1
21660.0,62.7
21720.0,63.9
21780.0,62.8
21840.0,60.8
21900.0,62.4
21960.0,62.7
22020.0,63.0
22080.0,63.4
22140.0,63.4
22200.0,62.3
22260.0,64.0
22320.0,57.2
22380.0,63.4
22440.0,61.9
22500.0,60.3
22560.0,61.6
22620.0,61.9
22680.0,62.2
22740.0,62.8
22800.0,61.0
22860.0,63.8
22920.0,62.8
22980.0,63.4
23040.0,62.8
23100.0,62.5
23160.0,58.5
23220.0,52.7
23280.0,53.0
23340.0,52.7
23400.0,53.2
23460.0,52.8
23520.0,51.8
23580.0,52.2
23640.0,51.7
23700.0,52.9
23760.0,52.8
23820.0,53.0
23880.0,51.9
23940.0,51.6
24000.0,50.7
24060.0,50.8
24120.0,49.7
24180.0,50.7
24240.0,50.6
24300.0,50.1
24360.0,49.7
24420.0,48.9
24480.0,47.9
24540.0,48.4
24600.0,48.0
24660.0,48.3
24720.0,48.5
24780.0,47.6
24840.0,47.6
24900.0,47.9
24960.0,46.9
25020.0,46.3
25080.0,47.1
25140.0,48.2
25200.0,48.3
25260.0,48.1
25320.0,47.6
25380.0,47.9
25440.0,47.6
25500.0,47.6
25560.0,47.5
25620.0,47.5
25680.0,47.5
25740.0,48.9
25800.0,49.0
25860.0,49.6
25920.0,47.4
25980.0,49.5
26040.0,50.0
26100.0,48.7
26160.0,48.8
26220.0,50.1
26280.0,49.0
26340.0,48.3
26400.0,47.9
26460.0,45.8
26520.0,47.4
26580.0,48.6
26640.0,47.6
26700.0,50.0
26760.0,49.1
26820.0,47.8
26880.0,47.9
26940.0,49.7
27000.0,49.5
27060.0,50.8
27120.0,50.8
27180.0,51.1
27240.0,52.7
27300.0,53.4
27360.0,54.0
27420.0,51.7
27480.0,53.0
27540.0,53.9
27600.0,54.2
27660.0,54.2
27720.0,56.3
27780.0,56.0
27840.0,56.6
27900.0,57.7
27960.0,58.7
28020.0,59.7
28080.0,60.5
28140.0,60.3
28200.0,60.5
28260.0,61.6
28320.0,61.4
28380.0,61.8
28440.0,60.8
28500.0,61.0
28560.0,61.9
28620.0,63.2
28680.0,64.6
28740.0,63.9
28800.0,63.8
28860.0,63.9
28920.0,65.0
28980.0,64.1
29040.0,65.5
29100.0,65.5
29160.0,64.8
29220.0,64.1
29280.0,64.9
29340.0,65.5
29400.0,65.0
29460.0,64.5
29520.0,64.2
29580.0,65.4
29640.0,65.5
29700.0,64.8
29760.0,64.7
29820.0,65.8
29880.0,65.0
29940.0,65.1
30000.0,63.5
30060.0,64.9
30120.0,63.8
30180.0,64.0
30240.0,63.2
30300.0,63.9
30360.0,63.7
30420.0,62.5
30480.0,61.8
30540.0,61.7
30600.0,60.9
30660.0,60.8
30720.0,61.4
30780.0,61.1
30840.0,62.7
30900.0,61.4
30960.0,62.1
31020.0,62.2
31080.0,62.6
31140.0,61.4
31200.0,59.1
31260.0,59.1
31320.0,60.1
31380.0,60.2
31440.0,61.2
31500.0,60.0
31560.0,58.2
31620.0,56.9
31680.0,56.6
31740.0,54.9
31800.0,56.4
31860.0,56.6
31920.0,55.3
31980.0,54.7
32040.0,53.2
32100.0,51.7
32160.0,50.8
32220.0,49.6
32280.0,49.4
32340.0,48.0
32400.0,47.3
32460.0,46.1
32520.0,46.7
32580.0,45.6
32640.0,45.2
32700.0,45.0
32760.0,46.3
32820.0,46.8
32880.0,46.5
32940.0,46.3
33000.0,46.9
33060.0,47.6
33120.0,46.6
33180.0,48.0
33240.0,47.0
33300.0,48.2
33360.0,48.4
33420.0,48.8
33480.0,48.8
33540.0,48.4
33600.0,47.8
33660.0,48.4
33720.0,48.6
33780.0,47.6
33840.0,49.0
33900.0,48.5
33960.0,48.0
34020.0,49.3
34080.0,46.7
34140.0,46.2
34200.0,48.7
34260.0,46.8
34320.0,43.8
34380.0,44.3
34440.0,46.0
34500.0,46.6
34560.0,46.5
34620.0,46.6
34680.0,45.3
34740.0,46.1
34800.0,46.5
34860.0,47.2
34920.0,46.0
34980.0,47.9
35040.0,46.4
35100.0,48.0
35160.0,47.2
35220.0,49.7
35280.0,47.6
35340.0,48.0
35400.0,47.8
35460.0,46.8
35520.0,47.0
35580.0,49.1
35640.0,49.5
35700.0,50.7
35760.0,51.1
35820.0,51.0
35880.0,50.4
35940.0,49.7
36000.0,49.8
36060.0,48.9
36120.0,48.1
36180.0,48.0
36240.0,48.3
36300.0,48.5
36360.0,47.7
36420.0,47.0
36480.0,47.2
36540.0,47.0
36600.0,47.4
36660.0,46.1
36720.0,46.3
36780.0,47.4
36840.0,46.5
36900.0,46.8
36960.0,46.5
37020.0,46.4
37080.0,46.6
37140.0,45.8
37200.0,45.4
37260.0,44.6
37320.0,45.2
37380.0,44.1
37440.0,44.0
37500.0,44.6
37560.0,44.0
37620.0,44.1
37680.0,42.5
37740.0,43.3
37800.0,42.8
37860.0,43.1
37920.0,44.0
37980.0,44.1
38040.0,43.3
38100.0,44.9
38160.0,45.4
38220.0,46.1
38280.0,47.2
38340.0,46.0
38400.0,46.2
38460.0,46.3
38520.0,46.7
38580.0,47.0
38640.0,46.9
38700.0,47.1
38760.0,47.4
38820.0,46.3
38880.0,46.7
38940.0,45.2
39000.0,45.0
39060.0,46.6
39120.0,46.3
39180.0,48.1
39240.0,46.8
39300.0,47.3
39360.0,45.5
39420.0,45.4
39480.0,46.3
39540.0,47.0
39600.0,46.7
39660.0,46.6
39720.0,45.9
39780.0,46.6
39840.0,46.9
39900.0,46.2
39960.0,46.0
40020.0,47.3
40080.0,47.8
40140.0,47.4
40200.0,46.8
40260.0,45.7
40320.0,45.6
40380.0,45.1
40440.0,45.2
40500.0,45.1
40560.0,46.1
40620.0,46.7
40680.0,45.2
40740.0,45.0
40800.0,45.0
40860.0,45.3
40920.0,44.9
40980.0,45.5
41040.0,45.1
41100.0,46.3
41160.0,44.4
41220.0,44.6
41280.0,46.1
41340.0,44.9
41400.0,43.3
41460.0,44.5
41520.0,44.0
41580.0,44.5
41640.0,43.4
41700.0,43.9
41760.0,44.5
41820.0,44.3
41880.0,44.8
41940.0,44.5
42000.0,43.7
42060.0,43.5
42120.0,42.8
42180.0,42.2
42240.0,41.8
42300.0,40.7
42360.0,40.6
42420.0,40.0
42480.0,40.1
42540.0,39.4
42600.0,39.7
42660.0,40.2
42720.0,40.4
42780.0,39.3
42840.0,38.6
42900.0,39.2
42960.0,38.2
43020.0,38.6
43080.0,38.0
43140.0,39.1
43200.0,39.1
43260.0,38.8
43320.0,37.2
43380.0,38.3
43440.0,40.5
43500.0,39.6
43560.0,40.3
43620.0,39.8
43680.0,39.0
43740.0,37.4
43800.0,37.8
43860.0,37.4
43920.0,38.0
43980.0,38.5
44040.0,37.5
44100.0,38.1
44160.0,38.6
44220.0,40.2
44280.0,38.8
44340.0,38.7
44400.0,38.3
44460.0,38.3
44520.0,39.4
44580.0,38.8
44640.0,39.8
44700.0,41.2
44760.0,39.9
44820.0,38.6
44880.0,44.8
44940.0,46.0
45000.0,44.0
45060.0,46.1
45120.0,46.9
45180.0,46.7
45240.0,46.1
45300.0,45.3
45360.0,45.5
45420.0,43.3
45480.0,45.4
45540.0,44.9
45600.0,44.9
45660.0,43.7
45720.0,44.5
45780.0,44.9
45840.0,43.2
45900.0,42.5
45960.0,41.5
46020.0,41.1
46080.0,40.4
46140.0,39.7
46200.0,40.5
46260.0,40.0
46320.0,41.5
46380.0,41.4
46440.0,40.7
46500.0,40.1
46560.0,41.2
46620.0,42.0
46680.0,43.9
46740.0,44.0
46800.0,45.9
46860.0,46.0
46920.0,45.6
46980.0,42.9
47040.0,46.5
47100.0,43.6
47160.0,45.6
47220.0,46.2
47280.0,46.3
47340.0,45.5
47400.0,47.4
47460.0,48.4
47520.0,47.5
47580.0,47.0
47640.0,46.0
47700.0,47.1
47760.0,47.3
47820.0,46.5
47880.0,45.6
47940.0,48.0
48000.0,47.6
48060.0,46.7
48120.0,48.7
48180.0,47.6
48240.0,47.2
48300.0,48.1
48360.0,48.6
48420.0,48.6
48480.0,47.9
48540.0,43.1
48600.0,46.1
48660.0,48.1
48720.0,47.3
48780.0,46.2
48840.0,47.2
48900.0,47.6
48960.0,47.2
49020.0,47.2
49080.0,47.3
49140.0,46.9
49200.0,46.7
49260.0,45.9
49320.0,47.7
49380.0,47.3
49440.0,49.3
49500.0,48.8
49560.0,47.0
49620.0,47.1
49680.0,47.2
49740.0,49.1
49800.0,49.7
49860.0,49.7
49920.0,48.5
49980.0,45.7
50040.0,41.6
50100.0,41.0
50160.0,40.1
50220.0,41.5
50280.0,40.7
50340.0,39.3
50400.0,37.6
50460.0,35.9
50520.0,35.3
50580.0,35.9
50640.0,34.1
50700.0,34.6
50760.0,32.9
50820.0,32.8
50880.0,32.4
50940.0,32.6
51000.0,33.8
51060.0,35.2
51120.0,35.0
51180.0,33.5
51240.0,33.9
51300.0,34.7
51360.0,33.8
51420.0,34.1
51480.0,34.7
51540.0,32.9
51600.0,32.6
51660.0,34.0
51720.0,34.1
51780.0,33.8
51840.0,33.3
51900.0,34.8
51960.0,35.1
52020.0,34.5
52080.0,35.7
52140.0,34.5
52200.0,34.3
52260.0,35.8
52320.0,34.9
52380.0,33.0
52440.0,34.1
52500.0,36.6
52560.0,36.0
52620.0,36.7
52680.0,38.1
52740.0,37.2
52800.0,38.1
52860.0,37.7
52920.0,36.1
52980.0,35.6
53040.0,37.0
53100.0,37.1
53160.0,37.4
53220.0,34.9
53280.0,33.2
53340.0,34.5
53400.0,36.0
53460.0,34.5
53520.0,34.3
53580.0,35.5
53640.0,36.3
53700.0,34.3
53760.0,34.7
53820.0,35.0
53880.0,35.5
53940.0,35.5
54000.0,34.6
54060.0,35.2
54120.0,37.2
54180.0,37.1
54240.0,36.5
54300.0,39.3
54360.0,39.6
54420.0,38.5
54480.0,39.5
54540.0,42.2
54600.0,41.0
54660.0,39.4
54720.0,41.0
54780.0,41.7
54840.0,42.1
54900.0,41.3
54960.0,39.8
55020.0,39.8
55080.0,41.0
55140.0,40.9
55200.0,39.9
55260.0,42.2
55320.0,41.9
55380.0,41.5
55440.0,42.2
55500.0,42.4
55560.0,42.3
55620.0,43.7
55680.0,42.5
55740.0,38.1
55800.0,39.9
55860.0,41.1
55920.0,40.8
55980.0,40.8
56040.0,40.9
56100.0,41.0
56160.0,41.8
56220.0,43.2
56280.0,45.8
56340.0,44.5
56400.0,44.3
56460.0,43.9
56520.0,42.9
56580.0,42.9
56640.0,42.4
56700.0,42.0
56760.0,42.4
56820.0,41.7
56880.0,42.6
56940.0,44.6
57000.0,45.5
57060.0,44.8
57120.0,44.2
57180.0,45.9
57240.0,44.7
57300.0,44.6
57360.0,45.0
57420.0,46.4
57480.0,45.6
57540.0,45.0
57600.0,42.0
57660.0,43.2
57720.0,43.3
57780.0,42.7
57840.0,45.8
57900.0,50.1
57960.0,51.0
58020.0,49.4
58080.0,49.8
58140.0,51.0
58200.0,50.7
58260.0,50.9
58320.0,48.9
58380.0,49.1
58440.0,48.3
58500.0,49.9
58560.0,51.5
58620.0,49.5
58680.0,50.5
58740.0,51.1
58800.0,50.2
58860.0,50.2
58920.0,51.0
58980.0,51.1
59040.0,50.4
59100.0,50.5
59160.0,50.8
59220.0,50.9
59280.0,50.0
59340.0,51.4
59400.0,51.4
59460.0,51.6
59520.0,52.8
59580.0,52.7
59640.0,52.8
59700.0,51.4
59760.0,52.2
59820.0,51.7
59880.0,52.4
59940.0,52.6
60000.0,50.9
60060.0,52.1
60120.0,51.7
60180.0,53.1
60240.0,52.0
60300.0,52.0
60360.0,52.0
60420.0,51.7
60480.0,50.8
60540.0,52.3
60600.0,51.9
60660.0,51.4
60720.0,52.9
60780.0,52.5
60840.0,52.2
60900.0,52.5
60960.0,53.2
61020.0,53.2
61080.0,53.4
61140.0,52.7
61200.0,52.1
61260.0,52.4
61320.0,53.1
61380.0,52.3
61440.0,50.1
61500.0,51.0
61560.0,51.7
61620.0,52.0
61680.0,50.8
61740.0,51.2
61800.0,52.2
61860.0,52.7
61920.0,52.9
61980.0,51.9
62040.0,52.3
62100.0,51.9
62160.0,51.2
62220.0,53.8
62280.0,51.4
62340.0,52.5
62400.0,52.7
62460.0,50.8
62520.0,51.8
62580.0,50.4
62640.0,52.8
62700.0,52.3
62760.0,52.4
62820.0,51.5
62880.0,53.0
62940.0,51.5
63000.0,51.7
63060.0,52.5
63120.0,53.2
63180.0,52.1
63240.0,52.7
63300.0,52.2
63360.0,51.7
63420.0,51.6
63480.0,50.0
63540.0,50.1
63600.0,50.9
63660.0,51.4
63720.0,51.1
63780.0,47.3
63840.0,50.0
63900.0,49.8
63960.0,47.9
64020.0,49.6
64080.0,48.4
64140.0,49.2
64200.0,47.4
64260.0,48.3
64320.0,47.7
64380.0,46.6
64440.0,48.2
64500.0,44.7
64560.0,47.7
64620.0,47.6
64680.0,43.7
64740.0,47.6
64800.0,46.3
64860.0,49.9
64920.0,54.0
64980.0,51.0
65040.0,51.2
65100.0,53.7
65160.0,51.4
65220.0,50.7
65280.0,52.4
65340.0,52.8
65400.0,51.0
65460.0,52.3
65520.0,51.0
65580.0,50.7
65640.0,52.5
65700.0,51.6
65760.0,51.0
65820.0,53.0
65880.0,55.2
65940.0,55.2
66000.0,55.6
66060.0,56.0
66120.0,57.2
66180.0,57.7
66240.0,57.8
66300.0,56.8
66360.0,56.2
66420.0,55.8
66480.0,54.9
66540.0,53.3
66600.0,53.8
66660.0,53.1
66720.0,50.4
66780.0,52.7
66840.0,51.6
66900.0,51.1
66960.0,51.5
67020.0,51.3
67080.0,52.2
67140.0,52.7
67200.0,51.5
67260.0,51.4
67320.0,53.0
67380.0,53.2
67440.0,53.6
67500.0,53.5
67560.0,54.1
67620.0,53.6
67680.0,53.9
67740.0,55.9
67800.0,53.5
67860.0,52.8
67920.0,54.0
67980.0,54.3
68040.0,54.7
68100.0,54.0
68160.0,52.8
68220.0,52.8
68280.0,54.5
68340.0,52.4
68400.0,52.5
68460.0,52.3
68520.0,52.4
68580.0,50.5
68640.0,51.6
68700.0,52.8
68760.0,51.6
68820.0,53.1
68880.0,52.0
68940.0,52.4
69000.0,52.7
69060.0,53.5
69120.0,53.3
69180.0,52.8
69240.0,52.9
69300.0,53.4
69360.0,53.3
69420.0,52.9
69480.0,54.5
69540.0,52.6
69600.0,52.0
69660.0,54.3
69720.0,53.9
69780.0,53.6
69840.0,55.1
69900.0,53.5
69960.0,55.3
70020.0,54.8
70080.0,55.2
70140.0,53.8
70200.0,52.8
70260.0,54.1
70320.0,52.9
70380.0,52.5
70440.0,52.5
70500.0,51.9
70560.0,54.3
70620.0,53.9
70680.0,53.3
70740.0,52.4
70800.0,53.5
70860.0,53.3
70920.0,53.2
70980.0,53.5
71040.0,54.6
71100.0,52.9
71160.0,53.1
71220.0,53.7
71280.0,52.6
71340.0,53.2
71400.0,54.0
71460.0,53.9
71520.0,54.2
71580.0,56.0
71640.0,55.5
71700.0,53.8
71760.0,54.1
71820.0,54.7
71880.0,56.4
71940.0,55.4
72000.0,55.0
72060.0,53.9
72120.0,54.0
72180.0,55.1
72240.0,54.8
72300.0,53.6
72360.0,54.5
72420.0,53.7
72480.0,56.3
72540.0,55.1
72600.0,54.7
72660.0,54.5
72720.0,54.9
72780.0,55.7
72840.0,55.1
72900.0,55.7
72960.0,55.6
73020.0,57.3
73080.0,57.7
73140.0,57.4
73200.0,56.8
73260.0,56.1
73320.0,56.5
73380.0,59.0
73440.0,59.0
73500.0,57.6
73560.0,56.7
73620.0,56.8
73680.0,58.0
73740.0,59.3
73800.0,63.4
73860.0,64.6
73920.0,63.7
73980.0,62.6
74040.0,59.9
74100.0,57.1
74160.0,58.9
74220.0,58.7
74280.0,57.5
74340.0,60.3
74400.0,60.3
74460.0,64.1
74520.0,63.2
74580.0,62.2
74640.0,64.0
74700.0,65.0
74760.0,63.6
74820.0,63.6
74880.0,62.9
74940.0,62.9
75000.0,62.2
75060.0,62.2
75120.0,63.2
75180.0,65.5
75240.0,63.8
75300.0,63.7
75360.0,64.6
75420.0,65.7
75480.0,56.9
75540.0,61.1
75600.0,65.1
75660.0,67.8
75720.0,67.8
75780.0,67.3
75840.0,66.7
75900.0,67.7
75960.0,68.1
76020.0,65.6
76080.0,65.6
76140.0,67.0
76200.0,66.9
76260.0,66.5
76320.0,64.7
76380.0,63.2
76440.0,60.2
76500.0,65.2
76560.0,65.6
76620.0,66.8
76680.0,64.3
76740.0,66.4
76800.0,67.6
76860.0,66.2
76920.0,65.8
76980.0,65.7
77040.0,64.3
77100.0,66.3
77160.0,66.1
77220.0,63.3
77280.0,64.6
77340.0,63.4
77400.0,64.9
77460.0,64.3
77520.0,63.4
77580.0,62.2
77640.0,61.6
77700.0,64.5
77760.0,67.3
77820.0,67.6
77880.0,65.8
77940.0,66.5
78000.0,67.4
78060.0,66.6
78120.0,64.5
78180.0,65.8
78240.0,62.8
78300.0,62.8
78360.0,62.5
78420.0,62.7
78480.0,61.5
78540.0,61.7
78600.0,59.3
78660.0,64.3
78720.0,64.2
78780.0,64.8
78840.0,63.4
78900.0,62.6
78960.0,61.8
79020.0,61.0
79080.0,61.8
79140.0,60.8
79200.0,60.8
79260.0,59.1
79320.0,58.7
79380.0,57.8
79440.0,55.8
79500.0,54.9
79560.0,54.0
79620.0,54.9
79680.0,53.3
79740.0,53.8
79800.0,52.9
79860.0,55.9
79920.0,58.2
79980.0,54.7
80040.0,59.9
80100.0,58.9
80160.0,59.1
80220.0,57.3
80280.0,60.1
80340.0,60.6
80400.0,63.7
80460.0,61.3
80520.0,61.4
80580.0,61.7
80640.0,62.3
80700.0,62.6
80760.0,62.3
80820.0,62.8
80880.0,63.2
80940.0,65.2
81000.0,64.9
81060.0,63.8
81120.0,63.0
81180.0,64.2
81240.0,67.0
81300.0,67.3
81360.0,66.8
81420.0,64.8
81480.0,63.0
81540.0,63.4
81600.0,64.2
81660.0,61.8
81720.0,66.1
81780.0,63.0
81840.0,64.1
81900.0,63.4
81960.0,64.2
82020.0,65.4
82080.0,65.6
82140.0,64.2
82200.0,65.2
82260.0,65.7
82320.0,63.4
82380.0,63.8
82440.0,66.5
82500.0,66.5
82560.0,66.8
82620.0,65.0
82680.0,65.7
82740.0,67.5
82800.0,67.5
82860.0,66.5
82920.0,68.1
82980.0,68.0
83040.0,65.2
83100.0,67.4
83160.0,66.4
83220.0,65.8
83280.0,64.8
83340.0,64.1
83400.0,67.2
83460.0,65.6
83520.0,66.8
83580.0,64.8
83640.0,65.9
83700.0,66.3
83760.0,65.4
83820.0,65.1
83880.0,65.7
83940.0,65.8
84000.0,66.5
84060.0,65.7
84120.0,64.8
84180.0,66.2
84240.0,68.7
84300.0,65.9
84360.0,66.9
84420.0,65.4
84480.0,67.1
84540.0,66.9
84600.0,67.7
84660.0,69.0
84720.0,67.2
84780.0,68.1
84840.0,67.8
84900.0,67.9
84960.0,67.8
85020.0,67.8
85080.0,66.2
85140.0,66.9
85200.0,66.5
85260.0,64.8
85320.0,66.6
85380.0,67.5
85440.0,66.4
85500.0,69.0
85560.0,68.5
85620.0,71.2
85680.0,71.9
85740.0,71.3
85800.0,70.4
85860.0,69.9
85920.0,67.3
85980.0,65.6
86040.0,65.8
86100.0,64.9
86160.0,66.2
86220.0,67.8
86280.0,67.8
86340.0,68.4
