37, 1001
Michael A Robinson, Chris Jernigan, Subi Thakali
NOAA ESRL Chemical Sciences Laboratory and CIRES, U. of Colorado
NOAA Iodide CIMS Instrument
USOS
1, 1
2024, 07, 27, 2024, 07, 28
1
starttime_UTC, seconds_past_midnight, seconds_of_day_since_00:00:00_UTC
5
1, 1, 1, 1, 1
-9999, -9999, -9999, -9999, -9999
C4H7NO5_NOAACIMS, pptv, Gas_C4H7NO5_InSitu_S_AVMR, 
ISOPN_NOAACIMS, pptv, Gas_ISOPN_InSitu_S_AVMR, 
C5H10O3_NOAACIMS, pptv, Gas_C5H10O3_InSitu_S_AVMR, 
C5H9NO5_NOAACIMS, pptv, Gas_C5H9NO5_InSitu_S_AVMR, 
C10H17NO4_NOAACIMS, pptv, Gas_C10H17NO4_InSitu_S_AVMR, 
0
18
PI_CONTACT_INFO: 325 Broadway, R/CSD 7, Boulder, Colorado 80305; michael.a.robinson@noaa.gov; chris.jernigan@noaa.gov;
PLATFORM: NOAA CSL Mobile Lab
LOCATION: SLC, Utah
ASSOCIATED_DATA: 1Hz data also available on request.
INSTRUMENT_INFO: NOAA I- ToF CIMS
DATA_INFO: All data in parts per trillion by volume (pptv). 1 Hz data is available upon request.
UNCERTAINTY: TBD
ULOD_FLAG: -7777
ULOD_VALUE: N/A
LLOD_FLAG: -8888
LLOD_VALUE: N/A
DM_CONTACT_INFO: Nathan Howard; nathan.h.howard@noaa.gov
PROJECT_INFO: USOS, summer 2024. https://csl.noaa.gov/groups/csl7/measurements/2024usos/
STIPULATIONS_ON_USE: Users are strongly encouraged to contact the PI for proper data usage.
OTHER_COMMENTS: 
REVISION: RA
RA: Preliminary Data; For in-field use only
starttime_UTC, C4H7NO5_NOAACIMS, ISOPN_NOAACIMS, C5H10O3_NOAACIMS, C5H9NO5_NOAACIMS, C10H17NO4_NOAACIMS
     0,  8.026,  5.029, 21.506,  3.711,  0.171
    60,  7.959,  5.281, 23.127,  3.874,  0.210
   120,  8.301,  5.289, 22.321,  4.107,  0.223
   180,  8.112,  5.352, 22.914,  4.086,  0.208
   240,  8.184,  5.211, 23.253,  4.102,  0.182
   300,  8.005,  5.314, 24.608,  3.917,  0.049
   360,  8.159,  5.815, 27.921,  4.097,  0.217
   420,  7.970,  5.341, 26.831,  3.916,  0.137
   480,  7.912,  5.327, 26.606,  3.783,  0.182
   540,  8.138,  5.661, 26.488,  3.852,  0.101
   600,  8.006,  5.200, 26.596,  3.993,  0.175
   660,  7.885,  5.590, 26.752,  4.133,  0.091
   720,  7.743,  3.524, 22.479,  3.670, -0.260
   780,  8.198,  5.545, 24.571,  4.036,  0.113
   840,  8.423,  5.546, 24.956,  4.151,  0.196
   900,  8.271,  5.404, 25.403,  4.227,  0.151
   960,  8.767,  6.074, 25.990,  4.238,  0.178
  1020,  9.056,  6.836, 27.634,  4.218,  0.208
  1080,  8.720,  6.399, 25.999,  3.861,  0.250
  1140,  8.686,  6.034, 25.862,  4.093,  0.261
  1200,  8.361,  5.724, 26.008,  3.860,  0.128
  1260,  8.671,  5.920, 26.364,  3.909,  0.196
  1320,  8.496,  6.079, 26.699,  4.125,  0.292
  1380,  8.720,  6.344, 26.576,  4.234,  0.151
  1440,  8.960,  6.425, 26.687,  3.963,  0.142
  1500,  9.208,  7.133, 28.539,  3.999,  0.172
  1560,  9.212,  7.232, 27.486,  4.147,  0.113
  1620,  9.506,  7.317, 27.506,  4.107,  0.193
  1680,  9.491,  7.739, 27.911,  4.148,  0.190
  1740,  9.602,  7.704, 29.460,  4.326,  0.181
  1800,  9.437,  7.909, 27.854,  4.235,  0.304
  1860,  9.388,  7.582, 28.016,  4.260,  0.288
  1920,  9.341,  7.327, 27.473,  4.303,  0.222
  1980,  9.526,  7.058, 27.280,  4.402,  0.190
  2040,  9.478,  6.999, 27.363,  4.064,  0.262
  2100,  9.536,  6.958, 27.040,  4.159,  0.175
  2160,  9.405,  6.772, 26.901,  4.048,  0.147
  2220,  9.446,  6.868, 26.991,  4.273,  0.267
  2280,  9.679,  7.106, 26.994,  4.314,  0.189
  2340,  9.747,  7.298, 27.493,  4.137,  0.200
  2400,  9.897,  7.893, 28.175,  4.223,  0.255
  2460,  9.912,  8.121, 27.851,  4.407,  0.221
  2520, 10.081,  8.313, 26.474,  4.421, -0.023
  2580,  9.649,  6.643, 19.939,  4.387,  0.135
  2640,  9.898,  7.777, 24.640,  4.134,  0.245
  2700, 10.082,  7.945, 25.530,  4.242,  0.200
  2760, 10.021,  8.110, 26.894,  4.341,  0.232
  2820,  9.854,  7.922, 27.520,  4.233,  0.273
  2880,  9.754,  7.973, 27.384,  4.243,  0.250
  2940,  9.746,  8.078, 27.424,  4.313,  0.319
  3000,  9.560,  7.863, 27.450,  4.241,  0.286
  3060,  9.556,  7.568, 24.408,  4.234,  0.300
  3120,  9.733,  6.784, 25.801,  4.374,  0.229
  3180,  9.666,  6.984, 25.464,  4.402,  0.299
  3240,  9.535,  6.693, 25.300,  4.511,  0.214
  3300,  9.647,  6.978, 26.956,  4.472,  0.199
  3360,  9.679,  6.660, 25.796,  4.276,  0.228
  3420,  9.771,  6.942, 26.770,  4.473,  0.208
  3480,  9.793,  6.554, 25.548,  4.405,  0.206
  3540,  9.683,  6.479, 26.146,  4.588,  0.260
  3600,  9.660,  6.241, 25.721,  4.487,  0.323
  3660,  9.682,  6.639, 26.455,  4.624,  0.237
  3720,  9.778,  6.774, 26.712,  4.539,  0.219
  3780,  9.671,  6.520, 25.705,  4.413,  0.236
  3840,  9.686,  6.891, 26.708,  4.556,  0.351
  3900,  9.859,  7.185, 25.544,  4.464,  0.280
  3960,  9.787,  7.696, 28.328,  4.584,  0.306
  4020,  9.987,  7.931, 28.916,  4.720,  0.299
  4080,  9.954,  8.393, 29.813,  4.843,  0.344
  4140,  9.913,  8.833, 30.282,  4.762,  0.311
  4200, 10.203,  8.421, 30.735,  4.687,  0.334
  4260, 10.205,  8.950, 32.619,  5.068,  0.387
  4320, 10.286,  8.657, 33.286,  4.625,  0.240
  4380, 10.450,  9.438, 35.985,  4.973,  0.388
  4440, 10.219,  9.078, 31.504,  5.023,  0.373
  4500, 10.120,  8.857, 32.734,  4.702,  0.286
  4560, 10.301,  8.860, 32.717,  4.865,  0.280
  4620, 10.305,  9.339, 35.603,  5.014,  0.280
  4680, 10.254,  8.935, 35.099,  4.960,  0.346
  4740, 10.309,  9.505, 35.916,  5.037,  0.269
  4800, 10.095,  9.155, 36.760,  4.924,  0.249
  4860, 10.206,  9.639, 38.663,  4.860,  0.301
  4920, 10.023,  9.839, 39.261,  4.930,  0.276
  4980,  9.855,  9.826, 38.057,  4.644,  0.316
  5040,  9.909, 10.077, 38.109,  4.893,  0.306
  5100,  9.540,  9.894, 39.963,  4.645,  0.318
  5160,  9.762,  9.580, 39.104,  4.692,  0.235
  5220,  9.952, 10.285, 39.560,  4.780,  0.287
  5280, 10.006, 10.127, 39.552,  4.947,  0.271
  5340,  9.828,  9.871, 40.046,  4.714,  0.276
  5400,  9.747,  9.532, 41.163,  4.834,  0.248
  5460,  9.705,  9.885, 41.579,  4.535,  0.258
  5520, 10.142, 10.619, 42.137,  4.761,  0.193
  5580, 10.254, 10.868, 43.115,  5.018,  0.202
  5640, 10.084, 11.690, 43.296,  4.831,  0.279
  5700,  9.691, 10.744, 39.968,  4.884,  0.284
  5760,  9.912, 10.579, 40.356,  4.868,  0.318
  5820,  9.859, 11.104, 40.341,  4.924,  0.257
  5880,  9.935, 10.902, 39.851,  4.964,  0.227
  5940,  9.801, 10.905, 39.344,  4.910,  0.291
  6000,  9.710, 11.314, 39.249,  5.052,  0.256
  6060,  9.772, 11.418, 37.801,  4.856,  0.346
  6120,  9.777, 11.344, 37.878,  4.770,  0.279
  6180, 10.253, 12.069, 37.928,  5.016,  0.307
  6240, -9999.000, -9999.000, -9999.000, -9999.000, -9999.000
  6300, 10.120, 11.199, 33.916,  4.869,  0.135
  6360, 10.201, 12.696, 36.544,  4.983,  0.271
  6420, 10.362, 12.465, 36.902,  5.319,  0.204
  6480, 10.088, 12.921, 39.560,  4.891,  0.271
  6540, 10.082, 12.587, 39.451,  5.196,  0.286
  6600, 10.019, 12.309, 39.874,  5.045,  0.298
  6660,  9.964, 12.245, 38.736,  4.761,  0.244
  6720, 10.539, 12.172, 38.623,  5.282,  0.248
  6780, 10.441, 12.631, 41.136,  4.869,  0.258
  6840, 10.530, 12.521, 41.158,  5.042,  0.306
  6900, 10.764, 12.283, 40.478,  4.988,  0.282
  6960, 10.516, 12.966, 41.256,  5.040,  0.253
  7020, 10.182, 13.027, 40.464,  4.804,  0.267
  7080, 10.400, 12.677, 40.332,  5.034,  0.243
  7140, 10.114, 12.419, 39.705,  4.755,  0.378
  7200, 10.277, 12.302, 40.098,  5.082,  0.409
  7260, 10.235, 12.226, 40.958,  4.860,  0.347
  7320, 10.201, 12.739, 41.230,  4.801,  0.379
  7380, 10.237, 11.975, 39.179,  4.782,  0.335
  7440, 10.413, 13.130, 40.948,  4.805,  0.421
  7500, 10.461, 12.528, 42.485,  4.996,  0.319
  7560, 10.013, 12.180, 40.181,  4.938,  0.342
  7620, 10.222, 12.440, 39.689,  4.688,  0.357
  7680, 10.038, 12.665, 40.731,  4.649,  0.327
  7740, 10.287, 12.262, 40.418,  4.958,  0.351
  7800,  9.796,  9.825, 37.355,  4.619,  0.185
  7860,  9.576,  9.300, 34.361,  4.419,  0.074
  7920,  9.438,  9.791, 32.572,  4.475,  0.232
  7980,  9.468,  9.973, 33.025,  4.433,  0.191
  8040,  9.546,  9.907, 32.866,  4.466,  0.214
  8100, -9999.000, -9999.000, -9999.000, -9999.000, -9999.000
  8160,  9.594, 10.458, 30.075,  4.314,  0.187
  8220,  9.618, 10.170, 30.589,  4.452,  0.216
  8280,  9.651, 10.763, 33.485,  4.521,  0.249
  8340,  9.634, 10.553, 33.219,  4.524,  0.172
  8400,  9.642, 10.521, 35.161,  4.587,  0.246
  8460,  9.595, 10.401, 33.419,  4.541,  0.252
  8520,  9.652, 10.408, 33.219,  4.572,  0.207
  8580,  9.807, 10.408, 36.083,  4.531,  0.163
  8640,  9.949, 10.627, 35.349,  4.629,  0.221
  8700,  9.924, 10.526, 35.902,  4.866,  0.189
  8760, 10.008, 10.740, 36.366,  4.917,  0.171
  8820,  9.958, 11.086, 37.160,  4.733,  0.138
  8880,  9.939, 10.483, 38.051,  4.793,  0.175
  8940,  9.929, 10.737, 39.103,  4.694,  0.150
  9000, 10.006, 11.148, 38.994,  4.926,  0.150
  9060,  9.728, 10.664, 39.281,  4.909,  0.132
  9120, 10.095, 11.003, 39.664,  5.132,  0.117
  9180,  9.807, 10.819, 40.027,  5.091,  0.209
  9240,  9.693, 10.590, 40.553,  5.088,  0.187
  9300,  9.348, 10.000, 33.536,  4.812,  0.145
  9360,  8.930, 10.566, 37.564,  4.997,  0.177
  9420,  8.656, 10.165, 37.898,  5.492,  0.361
  9480,  8.552, 10.451, 38.869,  5.592,  0.333
  9540,  8.142, 10.842, 40.523,  5.880,  0.304
  9600,  8.053, 10.887, 40.672,  5.681,  0.443
  9660,  7.890, 11.321, 41.175,  5.691,  0.403
  9720,  7.677, 11.475, 41.563,  5.840,  0.414
  9780,  7.439, 11.605, 43.120,  6.068,  0.469
  9840,  7.360, 11.618, 44.229,  6.261,  0.524
  9900,  7.284, 11.622, 45.187,  6.052,  0.402
  9960, -9999.000, -9999.000, -9999.000, -9999.000, -9999.000
 10020,  6.798, 11.379, 42.024,  6.443,  0.552
 10080,  6.846, 11.594, 43.566,  6.631,  0.532
 10140,  6.862, 11.950, 44.357,  6.784,  0.573
 10200,  6.587, 11.972, 45.816,  6.732,  0.562
 10260,  6.652, 12.669, 44.555,  6.601,  0.512
 10320,  6.568, 13.350, 44.149,  6.819,  0.602
 10380,  6.599, 13.545, 45.629,  6.639,  0.597
 10440,  6.546, 12.822, 46.821,  6.805,  0.602
 10500,  6.315, 12.344, 43.768,  6.558,  0.572
 10560,  6.381, 12.330, 44.730,  6.468,  0.568
 10620,  6.258, 12.582, 46.205,  6.714,  0.609
 10680,  6.153, 12.345, 45.830,  6.378,  0.609
 10740,  6.203, 12.739, 47.053,  6.787,  0.609
 10800,  6.201, 13.325, 48.371,  6.453,  0.668
 10860,  6.185, 12.922, 47.552,  6.400,  0.558
 10920,  6.113, 13.005, 47.793,  6.240,  0.587
 10980,  6.154, 13.159, 48.200,  6.263,  0.617
 11040,  6.314, 12.834, 49.392,  6.416,  0.608
 11100,  6.209, 13.424, 50.227,  6.414,  0.686
 11160,  6.175, 13.094, 48.801,  6.508,  0.645
 11220,  6.156, 13.134, 49.047,  6.446,  0.580
 11280,  6.014, 13.324, 47.805,  6.193,  0.618
 11340,  6.047, 12.994, 48.759,  6.409,  0.722
 11400,  6.094, 12.540, 46.238,  6.630,  0.599
 11460,  6.018, 12.719, 45.830,  6.307,  0.595
 11520,  6.031, 11.821, 44.234,  6.226,  0.631
 11580,  6.154, 12.629, 44.060,  6.402,  0.623
 11640,  6.088, 12.725, 45.195,  6.024,  0.764
 11700,  6.064, 12.083, 43.486,  6.100,  0.625
 11760,  6.346, 11.696, 43.812,  6.481,  0.579
 11820,  5.885, 11.745, 39.208,  6.003,  0.567
 11880,  6.166, 11.617, 40.210,  6.222,  0.691
 11940,  6.164, 10.959, 40.818,  6.360,  0.623
 12000,  6.061, 10.859, 40.040,  6.340,  0.612
 12060,  6.028, 11.248, 39.682,  6.352,  0.672
 12120,  6.024, 10.724, 38.659,  6.224,  0.586
 12180,  6.192, 11.289, 44.778,  6.768,  0.752
 12240,  6.196, 10.995, 41.433,  6.865,  0.719
 12300,  6.222, 11.036, 41.773,  6.673,  0.644
 12360,  6.243, 11.426, 41.421,  6.820,  0.707
 12420,  6.216, 11.522, 41.748,  6.342,  0.682
 12480,  6.323, 11.935, 42.102,  6.635,  0.700
 12540,  6.329, 11.427, 42.109,  6.699,  0.711
 12600,  6.383, 11.273, 43.418,  6.592,  0.778
 12660,  6.343, 11.819, 43.744,  6.652,  0.604
 12720,  6.391, 11.750, 43.891,  6.564,  0.666
 12780,  6.231, 11.452, 41.785,  6.686,  0.672
 12840,  6.159, 11.295, 42.358,  6.605,  0.598
 12900,  6.378, 11.968, 46.130,  6.988,  0.746
 12960,  6.188, 11.495, 43.021,  6.653,  0.696
 13020,  6.327, 10.964, 41.979,  6.818,  0.816
 13080,  6.238, 11.385, 42.584,  6.684,  0.710
 13140,  6.294, 10.938, 40.490,  6.718,  0.693
 13200,  6.285, 11.778, 41.811,  6.900,  0.709
 13260,  6.223, 11.003, 40.436,  6.702,  0.616
 13320,  6.127, 11.008, 40.292,  6.498,  0.712
 13380,  6.251, 10.887, 39.309,  7.077,  0.672
 13440,  6.213, 10.927, 39.249,  7.095,  0.603
 13500,  6.353, 11.194, 44.141,  7.159,  0.718
 13560,  6.253, 10.981, 41.981,  6.958,  0.730
 13620, -9999.000, -9999.000, -9999.000, -9999.000, -9999.000
 13680,  6.130, 10.985, 35.435,  6.238,  0.547
 13740,  6.246, 11.293, 37.454,  6.673,  0.620
 13800,  6.302, 10.918, 39.149,  7.004,  0.608
 13860,  6.347, 10.755, 37.591,  6.884,  0.651
 13920,  6.389, 10.983, 40.594,  7.557,  0.654
 13980,  6.250, 10.650, 37.520,  6.975,  0.625
 14040,  6.295, 10.831, 37.195,  6.834,  0.617
 14100,  6.358, 11.165, 41.437,  7.336,  0.713
 14160,  6.529, 11.317, 39.181,  7.621,  0.591
 14220,  6.459, 11.617, 41.437,  7.343,  0.670
 14280,  6.711, 11.427, 41.639,  7.448,  0.713
 14340,  6.717, 11.453, 39.989,  7.600,  0.621
 14400,  6.569, 11.559, 41.592,  7.353,  0.594
 14460,  6.480, 11.269, 39.355,  7.419,  0.654
 14520,  6.469, 11.539, 41.858,  7.472,  0.691
 14580,  6.593, 11.090, 38.618,  7.426,  0.614
 14640,  6.490, 11.389, 39.261,  7.413,  0.619
 14700,  6.523, 11.500, 41.865,  7.556,  0.687
 14760,  6.462, 11.525, 41.313,  7.337,  0.665
 14820,  6.390, 11.447, 42.367,  7.388,  0.676
 14880,  6.435, 11.043, 41.426,  7.402,  0.604
 14940,  6.383, 11.225, 40.066,  7.188,  0.657
 15000,  6.312, 11.406, 40.581,  7.395,  0.552
 15060,  6.321, 10.627, 38.315,  7.453,  0.610
 15120,  6.434, 11.203, 37.342,  7.389,  0.628
 15180,  6.357, 10.925, 37.736,  7.640,  0.625
 15240,  6.445, 11.141, 39.576,  7.578,  0.552
 15300,  6.407, 11.644, 41.983,  7.293,  0.620
 15360,  6.381, 10.985, 38.665,  7.244,  0.472
 15420,  6.355, 11.011, 39.311,  7.409,  0.576
 15480, -9999.000, -9999.000, -9999.000, -9999.000, -9999.000
 15540,  6.141, 10.206, 34.972,  7.181,  0.528
 15600,  6.215, 10.958, 37.417,  7.108,  0.529
 15660,  6.192, 10.657, 34.465,  6.921,  0.571
 15720,  6.205, 10.352, 35.613,  7.194,  0.540
 15780,  6.349, 11.079, 39.349,  7.252,  0.591
 15840,  6.246, 10.833, 36.662,  7.338,  0.603
 15900,  6.268, 10.157, 36.149,  7.005,  0.676
 15960,  6.337, 10.372, 36.893,  7.328,  0.626
 16020,  6.249, 10.063, 36.054,  7.228,  0.643
 16080,  6.232, 10.238, 37.340,  7.339,  0.590
 16140,  6.176,  9.961, 33.319,  6.939,  0.526
 16200,  6.207,  9.852, 34.410,  7.135,  0.509
 16260,  6.136,  9.979, 37.502,  7.202,  0.658
 16320,  6.266, 10.279, 36.626,  7.167,  0.611
 16380,  6.346, 10.479, 38.205,  7.524,  0.551
 16440,  6.414, 10.174, 36.968,  7.433,  0.596
 16500,  6.221, 10.252, 34.474,  7.470,  0.532
 16560,  6.190, 10.515, 36.064,  7.482,  0.615
 16620,  6.253, 10.160, 35.204,  7.386,  0.526
 16680,  6.245, 10.215, 36.733,  7.613,  0.550
 16740,  6.246, 10.470, 34.834,  7.371,  0.507
 16800,  6.186, 10.513, 34.753,  7.704,  0.587
 16860,  6.325, 10.614, 39.312,  7.828,  0.600
 16920,  6.339, 10.413, 35.285,  7.798,  0.645
 16980,  6.447, 10.383, 35.383,  8.094,  0.668
 17040,  6.426, 10.943, 37.033,  8.265,  0.551
 17100,  6.426, 10.202, 34.925,  8.244,  0.508
 17160,  6.355, 10.730, 35.998,  8.055,  0.689
 17220,  6.194, 10.475, 34.824,  8.091,  0.625
 17280,  6.268, 10.363, 32.819,  7.993,  0.614
 17340, -9999.000, -9999.000, -9999.000, -9999.000, -9999.000
 17400,  6.144, 10.146, 31.067,  7.721,  0.606
 17460,  6.431, 10.678, 32.909,  8.381,  0.579
 17520,  6.339, 10.919, 34.860,  8.370,  0.734
 17580,  6.395, 10.659, 33.740,  8.484,  0.656
 17640,  6.474, 11.318, 35.440,  8.779,  0.707
 17700,  6.494, 11.382, 35.018,  8.762,  0.679
 17760,  6.507, 11.186, 35.163,  8.699,  0.659
 17820,  6.469, 11.706, 35.886,  8.938,  0.644
 17880,  6.566, 11.522, 35.095,  8.877,  0.637
 17940,  6.661, 12.114, 38.765,  8.965,  0.727
 18000,  6.465, 11.637, 38.089,  8.895,  0.762
 18060,  6.588, 11.809, 36.282,  9.255,  0.762
 18120,  6.722, 12.463, 38.268,  9.503,  0.752
 18180,  6.538, 11.751, 35.245,  9.070,  0.748
 18240,  6.675, 12.026, 37.217,  9.226,  0.766
 18300,  6.588, 12.392, 35.920,  9.287,  0.674
 18360,  6.779, 12.445, 37.408,  9.687,  0.767
 18420,  6.745, 13.008, 41.225, 10.024,  0.847
 18480,  6.689, 12.676, 38.587,  9.665,  0.795
 18540,  6.856, 13.012, 39.283,  9.965,  0.882
 18600,  6.835, 13.559, 39.872, 10.235,  0.836
 18660,  6.860, 13.289, 39.473, 10.323,  0.873
 18720,  6.603, 13.000, 38.951,  9.900,  0.859
 18780,  6.893, 13.065, 37.453, 10.375,  0.754
 18840,  6.781, 13.538, 38.920, 10.355,  0.884
 18900,  6.755, 13.498, 39.557, 10.026,  0.893
 18960,  6.842, 13.737, 41.539, 10.712,  0.915
 19020,  6.844, 13.670, 42.497, 10.606,  0.923
 19080,  6.722, 13.383, 39.693,  9.988,  0.886
 19140,  6.751, 13.516, 37.605,  9.892,  0.835
 19200,  6.400, 12.972, 34.164,  9.305,  0.750
 19260,  6.700, 13.297, 35.752, 10.031,  0.833
 19320,  6.707, 13.033, 39.137, 10.145,  0.939
 19380,  6.531, 12.539, 35.741, 10.073,  0.875
 19440,  6.489, 13.183, 37.599,  9.893,  0.816
 19500,  6.467, 12.922, 41.089,  9.798,  1.014
 19560,  6.552, 13.017, 37.769,  9.523,  0.913
 19620,  6.508, 12.645, 37.831,  9.689,  0.997
 19680,  6.393, 12.957, 37.618,  9.841,  0.913
 19740,  6.551, 12.976, 38.294,  9.851,  0.907
 19800,  6.601, 13.015, 37.161,  9.598,  0.884
 19860,  6.305, 12.324, 34.235,  9.431,  0.832
 19920,  6.526, 13.270, 37.926,  9.975,  0.888
 19980,  6.669, 13.534, 41.272, 10.409,  0.911
 20040,  6.579, 13.132, 39.121, 10.004,  0.889
 20100,  6.571, 13.225, 38.878,  9.952,  0.977
 20160,  6.538, 13.228, 39.597, 10.160,  0.853
 20220,  6.528, 13.590, 38.590, 10.152,  0.825
 20280,  6.458, 13.433, 38.988,  9.987,  0.880
 20340,  6.606, 13.259, 36.961, 10.164,  0.834
 20400,  6.526, 13.211, 38.357,  9.897,  0.752
 20460,  6.508, 13.339, 38.676, 10.135,  0.808
 20520,  6.591, 13.485, 39.774, 10.316,  0.833
 20580,  6.637, 13.645, 40.605, 10.408,  0.824
 20640,  6.674, 13.390, 41.972, 10.727,  0.829
 20700,  6.621, 13.644, 40.118, 10.476,  0.821
 20760,  6.616, 13.650, 41.482, 10.377,  0.863
 20820,  6.729, 13.561, 41.668, 10.286,  0.803
 20880,  6.695, 13.685, 40.674, 10.337,  0.701
 20940,  6.558, 13.062, 38.560, 10.191,  0.652
 21000,  6.652, 11.689, 31.312,  9.735,  0.679
 21060,  6.369, 12.539, 38.031,  9.791,  0.525
 21120,  6.662, 12.887, 37.338, 10.027,  0.781
 21180,  6.632, 13.416, 38.728, 10.183,  0.741
 21240,  6.624, 13.360, 39.681, 10.042,  0.754
 21300,  6.604, 13.275, 39.694, 10.220,  0.852
 21360,  6.417, 13.328, 39.136,  9.829,  0.779
 21420,  6.440, 12.737, 36.266,  9.619,  0.719
 21480,  6.510, 12.563, 38.950,  9.894,  0.646
 21540,  6.567, 13.062, 42.768,  9.931,  0.745
 21600,  6.437, 12.886, 40.967,  9.719,  0.694
 21660,  6.364, 12.489, 41.343,  9.803,  0.657
 21720,  6.297, 12.599, 40.363,  9.454,  0.666
 21780,  6.256, 12.594, 41.237,  9.262,  0.640
 21840,  6.100, 12.409, 40.267,  8.902,  0.636
 21900,  6.031, 11.892, 37.001,  9.266,  0.559
 21960,  6.198, 12.902, 40.209,  9.187,  0.561
 22020,  6.143, 12.848, 43.794,  9.645,  0.700
 22080,  6.258, 12.585, 41.418,  9.350,  0.553
 22140,  6.178, 12.730, 41.509,  9.633,  0.558
 22200,  6.302, 12.921, 41.088,  9.530,  0.613
 22260,  6.334, 13.097, 40.646,  9.840,  0.547
 22320,  6.344, 13.042, 42.670,  9.756,  0.476
 22380,  6.422, 13.207, 42.378, 10.222,  0.563
 22440,  6.309, 13.045, 42.460,  9.876,  0.498
 22500,  6.253, 13.097, 46.284, 10.057,  0.671
 22560,  6.210, 13.015, 44.596, 10.111,  0.661
 22620,  6.286, 13.432, 43.942, 10.008,  0.553
 22680,  6.333, 13.296, 44.900, 10.367,  0.559
 22740,  6.365, 13.539, 45.263, 10.533,  0.589
 22800,  6.230, 14.151, 45.112, 10.353,  0.644
 22860,  6.352, 15.907, 43.510,  9.628,  0.906
 22920,  6.060, 13.825, 43.361, 10.144,  0.537
 22980,  6.313, 13.884, 45.306, 10.485,  0.561
 23040,  6.316, 14.376, 46.503, 11.012,  0.650
 23100,  6.306, 14.350, 48.706, 11.058,  0.761
 23160,  6.426, 14.347, 45.198, 12.053,  1.115
 23220,  6.388, 14.275, 42.062, 12.777,  1.655
 23280,  6.266, 13.924, 41.577, 12.570,  1.766
 23340,  6.035, 13.269, 41.135, 12.270,  1.818
 23400,  5.991, 13.663, 40.572, 12.086,  2.156
 23460,  5.872, 13.020, 38.201, 12.339,  2.067
 23520,  5.928, 13.893, 38.244, 12.052,  2.049
 23580,  5.747, 12.948, 39.628, 11.718,  2.216
 23640,  5.686, 13.284, 39.838, 11.512,  2.193
 23700,  5.717, 13.294, 39.215, 11.445,  2.123
 23760,  5.421, 12.300, 38.111, 10.579,  2.293
 23820,  4.993, 11.480, 36.226,  9.548,  2.314
 23880,  4.711, 10.835, 35.079,  9.023,  2.352
 23940,  4.566,  9.838, 33.038,  8.866,  2.199
 24000,  4.420,  9.724, 30.660,  8.366,  2.264
 24060,  4.199,  9.432, 29.541,  8.485,  1.964
 24120,  4.069,  9.082, 29.266,  8.489,  2.211
 24180,  4.152,  9.580, 30.434,  8.433,  2.291
 24240,  4.083,  8.875, 28.103,  8.498,  2.186
 24300,  3.921,  8.370, 26.059,  8.491,  2.245
 24360,  3.891,  8.270, 25.446,  8.370,  2.145
 24420,  3.711,  7.619, 24.881,  8.252,  2.051
 24480,  3.814,  7.260, 24.105,  8.567,  2.125
 24540,  3.739,  7.113, 22.042,  8.178,  1.771
 24600,  3.784,  6.707, 22.735,  8.847,  1.792
 24660,  3.763,  7.865, 25.594,  8.930,  2.002
 24720, -9999.000, -9999.000, -9999.000, -9999.000, -9999.000
 24780,  3.622,  6.374, 18.939,  8.908,  1.660
 24840,  3.770,  6.700, 20.452,  9.633,  1.824
 24900,  3.763,  6.721, 19.134,  9.391,  1.485
 24960,  3.673,  6.642, 20.289,  9.325,  1.669
 25020,  3.754,  6.671, 18.764,  8.949,  1.664
 25080,  3.846,  6.999, 19.792,  9.272,  1.794
 25140,  3.898,  7.059, 22.196,  9.197,  1.793
 25200,  3.905,  7.423, 21.585,  9.248,  1.842
 25260,  3.964,  7.411, 22.553,  9.290,  1.828
 25320,  3.900,  7.107, 22.089,  9.252,  1.767
 25380,  3.988,  7.568, 21.904,  9.266,  1.799
 25440,  3.910,  7.225, 22.541,  9.008,  1.771
 25500,  3.912,  7.619, 21.281,  8.956,  1.644
 25560,  3.917,  7.711, 21.467,  8.939,  1.667
 25620,  3.917,  7.567, 22.448,  9.363,  1.643
 25680,  3.988,  7.750, 22.261,  9.455,  1.757
 25740,  4.035,  7.901, 23.645,  9.552,  1.892
 25800,  4.035,  7.795, 22.657,  9.410,  1.606
 25860,  3.946,  7.218, 21.570,  9.698,  1.704
 25920,  3.979,  7.869, 22.899,  9.294,  1.717
 25980,  4.048,  7.431, 20.939,  9.166,  1.504
 26040,  4.035,  7.621, 21.391,  9.590,  1.618
 26100,  4.054,  7.811, 24.298,  9.690,  1.848
 26160,  4.045,  7.684, 23.409,  9.661,  1.711
 26220,  4.062,  7.891, 23.733,  9.671,  1.696
 26280,  4.025,  7.478, 23.779,  9.155,  1.598
 26340,  3.985,  7.540, 22.059,  9.070,  1.683
 26400,  4.044,  7.949, 24.184,  9.505,  1.610
 26460,  3.916,  7.499, 21.660,  9.291,  1.338
 26520,  4.008,  7.024, 21.065,  9.412,  1.352
 26580,  3.931,  7.735, 24.504,  9.067,  1.637
 26640,  3.999,  7.935, 22.731,  9.495,  1.630
 26700,  4.105,  7.572, 21.919,  9.656,  1.379
 26760,  4.022,  7.719, 22.970,  9.343,  1.668
 26820,  4.083,  7.508, 21.704,  9.198,  1.674
 26880,  4.074,  7.799, 22.406,  9.516,  1.550
 26940,  4.078,  7.480, 21.350,  9.361,  1.553
 27000,  4.032,  7.463, 20.754,  9.235,  1.493
 27060,  4.133,  7.828, 23.995,  9.756,  1.634
 27120,  4.053,  7.609, 22.212,  9.362,  1.298
 27180,  3.991,  7.369, 20.305,  9.079,  1.247
 27240,  4.082,  7.570, 22.016,  9.288,  1.328
 27300,  4.161,  7.489, 20.684,  9.468,  1.127
 27360,  4.214,  7.810, 21.362,  9.328,  1.071
 27420,  4.144,  7.757, 22.330,  9.062,  1.010
 27480,  4.203,  7.931, 21.314,  9.365,  1.005
 27540,  4.357,  8.816, 23.865,  9.525,  1.086
 27600,  4.460,  8.972, 23.728,  9.456,  1.009
 27660,  4.313,  8.749, 22.637,  9.369,  0.857
 27720,  4.640,  9.484, 25.337, 10.032,  0.948
 27780,  4.611,  9.242, 23.854,  9.734,  0.765
 27840,  4.817,  9.781, 25.839, 10.172,  0.948
 27900,  4.890, 10.543, 26.847, 10.633,  0.749
 27960,  5.133, 10.938, 28.810, 11.587,  0.729
 28020,  5.332, 11.971, 32.437, 11.574,  0.898
 28080,  5.329, 11.805, 32.631, 11.894,  0.924
 28140,  5.381, 11.988, 32.587, 12.035,  0.770
 28200,  5.334, 11.859, 34.966, 11.917,  0.860
 28260,  5.431, 12.232, 34.152, 12.594,  0.834
 28320,  5.522, 12.166, 33.797, 12.414,  0.643
 28380,  5.625, 12.066, 36.513, 11.752,  0.655
 28440,  5.403, 15.533, 34.234, 12.857,  0.727
 28500,  5.592, 12.291, 34.109, 12.629,  0.706
 28560,  5.803, 13.220, 38.558, 13.544,  0.754
 28620,  5.763, 12.667, 36.494, 13.523,  0.706
 28680,  5.967, 14.252, 41.214, 14.315,  0.650
 28740,  5.906, 13.982, 41.864, 14.403,  0.651
 28800,  5.915, 13.457, 40.607, 14.129,  0.572
 28860,  6.014, 14.111, 44.699, 14.172,  0.780
 28920,  6.050, 14.090, 43.636, 14.491,  0.680
 28980,  5.977, 14.491, 44.670, 14.163,  0.649
 29040,  6.059, 14.836, 45.882, 14.334,  0.630
 29100,  6.173, 14.997, 46.668, 15.046,  0.689
 29160,  6.162, 15.480, 47.185, 14.777,  0.698
 29220,  6.371, 15.716, 46.323, 15.146,  0.660
 29280,  6.412, 15.696, 48.929, 15.339,  0.679
 29340,  6.312, 15.450, 47.720, 15.284,  0.622
 29400,  6.369, 16.019, 49.036, 15.212,  0.658
 29460,  6.711, 17.645, 55.570, 16.506,  0.799
 29520,  6.643, 16.730, 52.922, 16.149,  0.776
 29580,  6.749, 17.768, 54.169, 16.610,  0.798
 29640,  6.710, 17.906, 56.851, 17.298,  0.845
 29700,  6.793, 18.225, 55.314, 16.896,  0.868
 29760,  6.764, 17.889, 56.609, 16.847,  0.898
 29820,  6.720, 17.691, 54.081, 17.219,  0.728
 29880,  6.969, 18.577, 57.871, 17.626,  0.757
 29940,  6.905, 18.547, 63.263, 17.474,  0.902
 30000,  6.768, 17.771, 57.199, 16.651,  0.945
 30060,  6.819, 18.047, 59.118, 16.857,  0.993
 30120,  6.691, 17.185, 57.203, 16.440,  0.924
 30180,  6.565, 17.341, 54.565, 16.302,  0.963
 30240,  6.524, 18.154, 54.896, 16.139,  1.014
 30300,  6.507, 16.523, 48.408, 16.184,  0.835
 30360,  6.667, 18.135, 51.894, 16.608,  0.977
 30420,  6.985, 18.451, 58.239, 17.773,  0.990
 30480,  6.636, 17.560, 55.205, 16.581,  0.990
 30540,  6.829, 18.296, 56.829, 17.130,  0.960
 30600,  6.911, 18.686, 58.482, 17.732,  1.071
 30660,  7.023, 18.638, 58.763, 18.162,  0.985
 30720,  7.107, 19.142, 61.349, 18.764,  1.191
 30780,  7.128, 18.832, 58.460, 18.788,  0.877
 30840,  7.187, 18.852, 61.588, 17.936,  0.971
 30900,  7.059, 18.369, 65.874, 18.020,  1.045
 30960,  7.118, 18.426, 62.672, 17.988,  1.075
 31020,  7.034, 17.698, 62.409, 17.355,  1.073
 31080,  6.876, 17.081, 61.205, 16.588,  1.055
 31140,  6.783, 16.723, 58.947, 16.409,  1.024
 31200,  6.645, 15.549, 56.867, 15.960,  0.940
 31260,  6.482, 16.349, 54.815, 15.674,  1.024
 31320,  6.844, 17.341, 57.131, 17.191,  0.984
 31380,  6.786, 16.785, 55.596, 17.195,  0.927
 31440,  7.108, 17.873, 58.640, 17.828,  0.972
 31500,  6.801, 16.416, 61.874, 17.133,  1.214
 31560,  6.149, 12.457, 50.230, 14.760,  0.975
 31620,  5.813, 11.246, 46.055, 13.896,  0.920
 31680,  5.778, 10.873, 42.073, 13.698,  0.991
 31740,  5.604, 10.354, 40.942, 13.458,  1.091
 31800,  5.722, 11.368, 40.969, 13.640,  1.083
 31860,  5.742, 11.264, 40.524, 13.863,  1.151
 31920,  5.557, 10.524, 38.290, 13.219,  1.096
 31980,  5.236,  9.452, 35.128, 12.565,  1.108
 32040,  4.876,  8.474, 31.590, 11.503,  0.956
 32100, -9999.000, -9999.000, -9999.000, -9999.000, -9999.000
 32160,  3.811,  5.822, 21.469,  8.270,  0.854
 32220,  3.673,  5.778, 23.577,  8.665,  0.923
 32280,  3.467,  4.854, 20.114,  7.815,  0.924
 32340,  3.622,  5.053, 19.042,  8.019,  1.028
 32400,  3.454,  4.556, 18.961,  7.969,  1.233
 32460,  3.337,  4.335, 16.225,  7.409,  1.372
 32520,  3.326,  4.395, 16.752,  7.502,  1.254
 32580,  3.323,  4.460, 15.001,  7.080,  1.360
 32640,  3.341,  4.226, 15.659,  7.364,  1.413
 32700,  3.295,  4.228, 17.997,  7.384,  1.491
 32760,  2.833,  3.345, 15.395,  6.189,  1.230
 32820,  2.695,  3.024, 13.390,  5.786,  1.265
 32880,  2.672,  2.993, 13.454,  5.969,  1.396
 32940,  2.657,  2.905, 11.400,  5.473,  1.319
 33000,  2.331,  2.384, 11.972,  5.071,  1.048
 33060,  2.345,  2.179,  9.362,  4.916,  1.061
 33120,  2.306,  2.542, 10.923,  4.758,  1.023
 33180,  2.257,  2.018,  9.033,  4.605,  1.023
 33240,  2.130,  2.092,  8.628,  4.161,  0.849
 33300,  2.064,  1.739, 12.625,  4.096,  1.037
 33360,  1.953,  1.595,  9.705,  3.760,  0.879
 33420,  1.946,  1.460, 10.581,  3.628,  0.846
 33480,  1.861,  1.594, 10.228,  3.517,  0.785
 33540,  1.984,  1.707, 11.937,  3.832,  0.750
 33600,  2.372,  1.725, 14.891,  4.467,  0.768
 33660,  2.385,  1.792, 15.522,  4.524,  0.708
 33720,  2.596,  1.907, 16.491,  4.886,  0.774
 33780,  2.712,  2.153, 19.050,  5.044,  0.793
 33840,  2.464,  1.962, 15.649,  4.629,  0.670
 33900,  2.593,  2.401, 19.033,  4.826,  0.803
 33960, -9999.000, -9999.000, -9999.000, -9999.000, -9999.000
 34020,  3.160,  3.577, 17.368,  6.332,  0.631
 34080,  3.448,  3.069, 22.418,  6.779,  0.823
 34140,  3.593,  3.094, 25.584,  7.115,  0.655
 34200,  3.887,  4.132, 25.232,  8.000,  0.885
 34260,  4.036,  4.531, 27.177,  8.426,  0.948
 34320,  4.365,  4.168, 31.932,  8.510,  1.010
 34380,  4.363,  3.888, 35.620,  8.565,  1.010
 34440,  4.144,  4.669, 32.576,  8.440,  1.177
 34500,  4.218,  4.814, 30.433,  8.892,  1.096
 34560,  4.307,  5.010, 31.167,  8.986,  1.172
 34620,  4.417,  5.298, 32.670,  9.187,  1.187
 34680,  4.545,  5.520, 33.127,  9.212,  1.377
 34740,  4.390,  5.528, 34.257,  9.417,  1.346
 34800,  4.454,  5.447, 34.069,  9.422,  1.510
 34860,  4.419,  5.365, 32.242,  9.686,  1.326
 34920,  4.472,  5.856, 32.417,  9.394,  1.431
 34980,  4.335,  5.306, 31.484,  9.303,  1.383
 35040,  4.363,  5.346, 32.507,  9.363,  1.378
 35100,  4.194,  4.927, 32.869,  8.862,  1.309
 35160,  4.186,  5.082, 31.375,  8.724,  1.158
 35220,  3.880,  4.517, 29.857,  8.221,  1.141
 35280,  3.846,  4.602, 29.732,  8.309,  1.145
 35340,  3.855,  4.502, 26.696,  7.974,  1.018
 35400,  3.961,  4.521, 27.684,  8.135,  1.036
 35460,  4.026,  4.710, 32.730,  8.265,  1.223
 35520,  4.043,  4.377, 30.666,  8.074,  1.048
 35580,  3.528,  3.467, 28.632,  6.795,  1.043
 35640,  3.271,  2.866, 26.343,  6.106,  0.843
 35700,  3.011,  2.766, 23.249,  5.645,  0.651
 35760,  2.960,  2.673, 20.332,  5.518,  0.486
 35820, -9999.000, -9999.000, -9999.000, -9999.000, -9999.000
 35880,  2.724,  2.092, 18.542,  4.600,  0.495
 35940,  2.787,  2.388, 18.985,  5.049,  0.625
 36000,  2.882,  2.622, 20.063,  4.936,  0.688
 36060,  3.022,  2.640, 20.197,  5.528,  0.721
 36120,  3.036,  2.936, 20.836,  5.504,  0.683
 36180,  3.074,  3.053, 20.846,  5.696,  0.699
 36240,  3.228,  3.068, 21.472,  6.090,  0.789
 36300,  3.281,  3.023, 24.689,  6.267,  0.840
 36360,  3.377,  3.177, 24.556,  6.231,  0.829
 36420,  3.224,  2.927, 23.712,  6.034,  0.813
 36480,  3.265,  3.032, 24.403,  5.981,  0.996
 36540,  3.191,  2.776, 22.896,  6.014,  0.842
 36600,  3.199,  2.540, 23.138,  5.712,  0.844
 36660,  3.125,  2.662, 26.925,  5.555,  0.982
 36720,  3.165,  2.760, 25.403,  5.627,  1.015
 36780,  3.111,  2.679, 24.381,  5.478,  0.903
 36840,  3.090,  2.401, 25.773,  5.513,  0.996
 36900,  3.117,  2.474, 24.727,  5.704,  0.876
 36960,  3.168,  2.419, 26.451,  5.698,  1.054
 37020,  3.207,  2.791, 25.955,  6.026,  1.075
 37080,  3.502,  2.904, 25.340,  6.489,  1.019
 37140,  3.522,  3.287, 30.092,  6.495,  1.142
 37200,  3.444,  2.786, 28.677,  6.508,  1.161
 37260,  3.532,  2.644, 27.445,  6.572,  1.013
 37320,  3.661,  3.182, 29.976,  6.892,  1.108
 37380,  3.605,  3.155, 26.431,  6.566,  1.050
 37440,  3.611,  3.066, 27.524,  6.544,  1.058
 37500,  3.680,  2.969, 31.236,  6.836,  1.272
 37560,  3.658,  3.117, 29.506,  6.798,  1.133
 37620,  3.738,  3.419, 30.731,  7.238,  1.033
 37680,  3.584,  2.923, 27.423,  6.619,  0.945
 37740,  3.630,  3.078, 27.850,  6.670,  1.064
 37800,  3.634,  2.895, 28.602,  6.836,  1.115
 37860,  3.581,  3.119, 29.381,  6.845,  1.127
 37920,  3.553,  3.125, 28.280,  6.715,  1.108
 37980,  3.538,  3.198, 30.978,  6.992,  1.038
 38040,  3.462,  3.115, 29.524,  6.552,  1.019
 38100,  3.316,  3.162, 26.668,  6.316,  0.910
 38160,  3.364,  3.300, 28.691,  6.580,  0.901
 38220,  3.326,  3.373, 25.649,  6.431,  0.769
 38280,  3.424,  3.363, 24.690,  6.647,  0.702
 38340,  3.345,  3.659, 27.981,  6.467,  0.860
 38400,  3.353,  3.785, 27.538,  6.479,  0.812
 38460,  3.352,  3.701, 25.600,  6.356,  0.760
 38520,  3.419,  3.966, 26.859,  6.536,  0.747
 38580,  3.435,  3.822, 24.940,  6.517,  0.718
 38640,  3.427,  3.479, 22.524,  6.342,  0.728
 38700,  3.417,  3.665, 26.760,  6.568,  0.859
 38760,  3.441,  3.766, 26.541,  6.440,  0.782
 38820,  3.313,  3.854, 24.148,  6.396,  0.736
 38880,  3.387,  3.642, 24.239,  6.372,  0.725
 38940,  3.322,  3.647, 23.823,  6.417,  0.716
 39000,  3.168,  3.176, 21.954,  6.321,  0.590
 39060,  3.330,  3.587, 24.760,  6.260,  0.797
 39120,  3.231,  3.455, 24.491,  6.228,  0.736
 39180,  3.173,  3.267, 22.490,  5.899,  0.697
 39240,  3.180,  3.279, 23.882,  5.949,  0.718
 39300,  3.146,  3.259, 22.826,  5.874,  0.673
 39360,  3.019,  3.133, 20.612,  5.821,  0.667
 39420,  3.060,  3.204, 23.434,  5.711,  0.637
 39480, -9999.000, -9999.000, -9999.000, -9999.000, -9999.000
 39540,  2.559,  2.659, 17.704,  4.872,  0.710
 39600,  2.665,  2.664, 20.752,  4.770,  0.590
 39660,  2.687,  2.534, 18.347,  4.948,  0.601
 39720,  2.642,  2.539, 17.099,  4.845,  0.591
 39780,  2.667,  2.652, 20.463,  4.859,  0.661
 39840,  2.649,  2.394, 20.808,  4.779,  0.649
 39900,  2.647,  2.547, 19.865,  4.826,  0.681
 39960,  2.681,  2.395, 20.065,  4.632,  0.660
 40020,  2.546,  2.479, 18.133,  4.702,  0.572
 40080,  2.549,  2.327, 17.585,  4.540,  0.591
 40140,  2.590,  2.586, 21.035,  4.660,  0.663
 40200,  2.570,  2.243, 21.040,  4.614,  0.646
 40260,  2.555,  2.515, 20.034,  4.451,  0.616
 40320,  2.502,  2.050, 21.263,  4.306,  0.645
 40380,  2.397,  2.081, 18.910,  4.323,  0.587
 40440,  2.303,  2.086, 18.933,  4.133,  0.586
 40500,  2.386,  2.147, 21.280,  4.307,  0.766
 40560,  2.425,  2.041, 19.616,  4.275,  0.664
 40620,  2.512,  2.458, 18.782,  4.179,  0.514
 40680,  2.466,  2.293, 19.977,  4.339,  0.639
 40740,  2.495,  2.443, 19.067,  4.463,  0.672
 40800,  2.525,  2.185, 18.726,  4.528,  0.584
 40860,  2.554,  2.501, 21.453,  4.511,  0.698
 40920,  2.519,  2.665, 21.435,  4.496,  0.669
 40980,  2.531,  1.922, 19.827,  4.501,  0.627
 41040,  2.474,  2.253, 22.624,  4.495,  0.648
 41100,  2.448,  2.204, 19.710,  4.215,  0.646
 41160,  2.377,  2.165, 19.906,  4.153,  0.534
 41220,  2.365,  2.369, 22.503,  4.198,  0.694
 41280,  2.398,  2.315, 21.287,  4.415,  0.690
 41340, -9999.000, -9999.000, -9999.000, -9999.000, -9999.000
 41400,  2.334,  2.295, 19.755,  4.071,  0.714
 41460,  2.290,  1.999, 18.812,  3.917,  0.551
 41520,  2.265,  1.886, 18.451,  4.059,  0.533
 41580,  2.307,  1.972, 21.430,  3.980,  0.613
 41640,  2.305,  1.874, 21.407,  4.021,  0.606
 41700,  2.251,  1.999, 19.414,  4.103,  0.600
 41760,  2.262,  2.157, 19.845,  4.208,  0.533
 41820,  2.292,  2.127, 19.953,  4.210,  0.577
 41880,  2.271,  1.979, 18.560,  4.146,  0.681
 41940,  2.323,  1.932, 21.080,  4.141,  0.657
 42000,  2.264,  2.066, 21.184,  4.055,  0.667
 42060,  2.357,  1.917, 19.876,  4.106,  0.699
 42120,  2.318,  1.958, 19.472,  4.076,  0.667
 42180,  2.253,  2.116, 20.422,  3.991,  0.662
 42240,  2.284,  1.802, 21.016,  4.133,  0.684
 42300,  2.479,  1.930, 22.326,  4.490,  0.887
 42360,  2.404,  1.931, 22.260,  4.374,  0.989
 42420,  2.367,  1.782, 21.142,  4.338,  0.958
 42480,  2.408,  2.097, 20.683,  4.300,  1.021
 42540,  2.487,  1.980, 22.509,  4.366,  0.880
 42600,  2.431,  2.050, 22.279,  4.324,  0.963
 42660,  2.396,  1.934, 20.507,  4.398,  0.947
 42720,  2.405,  2.081, 21.825,  4.316,  0.973
 42780,  2.390,  1.998, 20.799,  4.373,  0.994
 42840,  2.428,  1.895, 19.260,  4.165,  0.923
 42900,  2.445,  1.634, 22.046,  4.427,  1.043
 42960,  2.423,  1.981, 22.773,  4.355,  1.095
 43020,  2.453,  1.851, 20.752,  4.375,  0.967
 43080,  2.385,  2.112, 22.069,  4.364,  1.096
 43140,  2.427,  1.847, 21.380,  4.371,  0.982
 43200, -9999.000, -9999.000, -9999.000, -9999.000, -9999.000
 43260,  2.345,  1.598, 18.781,  4.005,  1.055
 43320,  2.339,  1.844, 20.376,  4.210,  0.980
 43380,  2.416,  1.932, 19.970,  4.293,  1.037
 43440,  2.433,  1.990, 19.692,  4.248,  0.931
 43500,  2.400,  1.735, 19.036,  4.177,  0.826
 43560,  2.404,  1.743, 18.540,  4.219,  0.922
 43620,  2.384,  1.871, 21.552,  4.239,  1.037
 43680,  2.378,  1.658, 20.220,  4.183,  0.970
 43740,  2.401,  1.875, 19.280,  4.380,  1.057
 43800,  2.436,  1.966, 19.876,  4.275,  0.945
 43860,  2.406,  1.686, 20.288,  4.372,  0.962
 43920,  2.491,  1.877, 19.585,  4.334,  1.002
 43980,  2.458,  1.925, 21.304,  4.454,  1.035
 44040,  2.454,  1.788, 21.394,  4.413,  0.973
 44100,  2.467,  1.804, 19.416,  4.404,  0.943
 44160,  2.422,  2.047, 20.007,  4.389,  0.853
 44220,  2.436,  1.917, 20.333,  4.605,  0.967
 44280,  2.468,  1.833, 20.095,  4.353,  0.894
 44340,  2.422,  1.779, 19.364,  4.438,  0.900
 44400,  2.422,  2.202, 20.783,  4.461,  1.011
 44460,  2.425,  2.034, 18.028,  4.265,  0.899
 44520,  2.418,  2.022, 17.246,  4.459,  0.877
 44580,  2.448,  2.136, 20.918,  4.358,  0.953
 44640,  2.462,  1.851, 20.233,  4.489,  0.932
 44700,  2.485,  1.917, 17.686,  4.482,  0.772
 44760,  2.434,  1.967, 19.108,  4.412,  0.758
 44820,  2.429,  1.908, 19.063,  4.656,  0.883
 44880,  2.477,  2.171, 17.709,  4.583,  0.788
 44940,  2.471,  2.430, 18.285,  4.636,  0.782
 45000,  2.510,  2.312, 20.114,  4.518,  0.856
 45060,  2.333,  2.179, 14.381,  4.060,  0.475
 45120,  2.402,  2.098, 14.788,  4.513,  0.535
 45180,  2.496,  2.329, 18.188,  4.560,  0.619
 45240,  2.470,  2.287, 17.835,  4.697,  0.646
 45300,  2.414,  2.343, 16.899,  4.593,  0.606
 45360,  2.451,  2.561, 18.358,  4.730,  0.726
 45420,  2.478,  2.320, 15.524,  4.629,  0.557
 45480,  2.460,  2.462, 15.899,  4.675,  0.665
 45540,  2.490,  2.509, 18.311,  4.673,  0.690
 45600,  2.496,  2.556, 19.150,  4.909,  0.659
 45660,  2.492,  2.329, 17.827,  4.709,  0.554
 45720,  2.503,  2.399, 17.032,  4.649,  0.575
 45780,  2.512,  2.555, 18.177,  4.650,  0.593
 45840,  2.549,  2.167, 18.667,  4.641,  0.621
 45900,  2.543,  2.583, 19.395,  4.546,  0.710
 45960,  2.503,  2.682, 19.727,  4.411,  0.683
 46020,  2.521,  2.556, 18.411,  4.614,  0.593
 46080,  2.554,  2.302, 17.881,  4.400,  0.568
 46140,  2.516,  2.492, 20.142,  4.469,  0.522
 46200,  2.574,  2.543, 20.197,  4.591,  0.661
 46260,  2.508,  2.613, 18.927,  4.566,  0.732
 46320,  2.590,  2.558, 20.518,  4.539,  0.847
 46380,  2.556,  2.431, 18.999,  4.422,  0.636
 46440,  2.508,  2.300, 17.961,  4.565,  0.559
 46500,  2.584,  2.643, 20.054,  4.592,  0.661
 46560,  2.568,  2.753, 20.827,  4.569,  0.748
 46620,  2.580,  2.397, 19.127,  4.733,  0.573
 46680,  2.634,  2.514, 18.979,  4.737,  0.596
 46740,  2.599,  2.635, 18.573,  4.626,  0.578
 46800,  2.571,  2.667, 18.254,  4.845,  0.603
 46860,  2.762,  3.288, 20.469,  5.746,  0.957
 46920,  2.758,  4.065, 19.990,  5.588,  1.218
 46980,  2.885,  3.634, 20.163,  5.362,  0.977
 47040,  2.834,  3.277, 18.880,  5.441,  0.807
 47100,  2.858,  3.181, 21.351,  5.089,  0.993
 47160,  2.801,  3.093, 20.536,  5.217,  0.801
 47220,  2.734,  3.267, 19.274,  5.058,  0.706
 47280,  2.757,  2.949, 20.526,  4.995,  0.735
 47340,  2.683,  3.139, 18.258,  4.979,  0.790
 47400,  2.770,  3.072, 17.491,  5.100,  0.729
 47460,  2.782,  3.604, 20.606,  5.021,  0.796
 47520,  2.793,  3.217, 19.122,  4.922,  0.612
 47580,  2.806,  3.157, 17.080,  5.195,  0.647
 47640,  2.810,  3.402, 18.499,  5.251,  0.711
 47700,  2.792,  3.139, 17.467,  5.040,  0.615
 47760,  2.760,  3.065, 16.594,  4.707,  0.578
 47820,  2.769,  3.213, 19.101,  5.119,  0.621
 47880,  2.786,  3.406, 18.116,  4.894,  0.739
 47940,  2.812,  3.066, 16.252,  5.046,  0.453
 48000,  2.921,  3.460, 17.240,  5.008,  0.649
 48060,  2.828,  3.147, 16.091,  4.941,  0.494
 48120,  2.818,  3.112, 16.064,  4.934,  0.432
 48180,  2.952,  3.320, 17.341,  5.234,  0.631
 48240,  2.838,  3.205, 16.330,  4.959,  0.550
 48300,  2.858,  3.278, 15.939,  5.010,  0.579
 48360,  2.811,  3.480, 16.522,  4.987,  0.555
 48420,  2.953,  3.715, 15.408,  5.109,  0.640
 48480,  2.854,  3.285, 14.107,  5.365,  0.637
 48540,  3.027,  3.466, 16.569,  5.171,  0.639
 48600,  2.909,  3.469, 15.590,  5.301,  0.633
 48660,  2.814,  2.888, 14.487,  5.019,  0.361
 48720,  2.956,  3.184, 12.449,  4.782,  0.565
 48780,  2.852,  3.311, 12.692,  4.687,  0.582
 48840,  2.910,  2.987, 13.452,  5.040,  0.593
 48900,  2.928,  3.091, 15.244,  5.100,  0.736
 48960,  3.009,  3.187, 16.362,  5.038,  0.625
 49020,  2.948,  3.214, 14.723,  5.023,  0.589
 49080,  2.949,  3.004, 15.933,  5.027,  0.560
 49140,  2.972,  3.002, 14.311,  4.946,  0.591
 49200,  2.934,  2.721, 13.895,  4.904,  0.343
 49260,  2.948,  2.923, 14.690,  4.979,  0.615
 49320,  2.970,  3.101, 14.880,  4.946,  0.593
 49380,  2.917,  3.026, 14.782,  4.710,  0.665
 49440,  2.855,  3.021, 14.907,  4.693,  0.666
 49500,  2.811,  3.025, 14.185,  4.643,  0.567
 49560,  2.892,  3.308, 14.572,  4.589,  0.748
 49620,  2.894,  3.211, 13.237,  4.714,  0.703
 49680,  2.704,  2.909, 11.839,  4.618,  0.610
 49740,  2.666,  2.927, 14.526,  4.342,  0.575
 49800,  2.715,  2.854, 15.288,  4.127,  0.571
 49860,  2.598,  2.735, 11.980,  4.117,  0.459
 49920,  2.638,  2.885, 13.078,  4.075,  0.598
 49980,  2.634,  3.171, 13.015,  4.173,  0.636
 50040,  2.601,  2.864, 12.651,  3.959,  0.660
 50100,  2.739,  2.927, 15.101,  4.241,  0.680
 50160,  2.751,  3.471, 15.829,  4.250,  0.834
 50220,  2.772,  3.289, 15.767,  4.256,  0.716
 50280,  2.765,  3.261, 16.967,  4.372,  0.833
 50340,  2.943,  2.606, 16.682,  4.774,  0.720
 50400,  2.985,  2.418, 17.182,  4.863,  0.682
 50460,  2.957,  2.780, 18.371,  4.793,  0.776
 50520,  2.951,  2.372, 17.492,  4.937,  0.786
 50580, -9999.000, -9999.000, -9999.000, -9999.000, -9999.000
 50640,  2.998,  2.165, 17.837,  4.881,  0.768
 50700,  2.969,  2.262, 19.046,  5.201,  0.957
 50760,  3.078,  2.650, 20.833,  5.162,  1.009
 50820,  3.152,  2.381, 20.549,  5.179,  0.901
 50880,  3.104,  2.616, 22.258,  5.243,  1.293
 50940,  3.098,  2.327, 20.877,  5.380,  1.232
 51000,  3.063,  2.093, 20.768,  5.308,  1.199
 51060,  2.998,  2.366, 23.453,  5.241,  1.219
 51120,  2.994,  2.066, 21.480,  5.344,  1.147
 51180,  3.028,  2.326, 22.612,  5.337,  1.090
 51240,  3.003,  1.858, 21.678,  5.157,  0.898
 51300,  2.829,  1.667, 20.897,  5.410,  0.706
 51360,  3.022,  1.939, 23.196,  5.189,  0.892
 51420,  3.004,  2.468, 20.750,  5.252,  0.862
 51480,  2.989,  2.104, 20.592,  5.479,  0.853
 51540,  3.033,  2.364, 23.278,  5.125,  0.880
 51600,  3.028,  2.397, 22.505,  5.374,  1.014
 51660,  2.965,  2.178, 22.067,  5.110,  0.685
 51720,  2.998,  2.558, 23.382,  5.251,  0.979
 51780,  2.957,  2.151, 21.246,  5.210,  0.750
 51840,  2.982,  2.635, 23.491,  5.190,  0.901
 51900,  2.904,  2.531, 21.629,  5.125,  0.889
 51960,  2.812,  2.375, 21.106,  5.148,  0.895
 52020,  2.865,  2.554, 24.013,  5.161,  0.925
 52080,  2.840,  2.358, 22.657,  4.990,  0.758
 52140,  2.815,  2.689, 20.560,  4.974,  0.705
 52200,  2.879,  2.882, 22.347,  4.977,  0.864
 52260,  2.884,  2.260, 20.691,  5.032,  0.648
 52320,  2.835,  3.214, 21.956,  4.901,  1.013
 52380,  2.829,  2.758, 20.841,  5.000,  0.813
 52440,  2.574,  3.282, 23.754,  5.299,  1.010
 52500,  2.797,  2.502, 21.451,  4.901,  0.713
 52560,  2.850,  2.343, 20.797,  5.028,  0.574
 52620,  2.852,  2.279, 20.740,  4.918,  0.639
 52680,  2.839,  2.669, 21.317,  5.087,  0.750
 52740,  2.964,  2.990, 21.113,  4.967,  0.818
 52800,  2.876,  2.743, 21.997,  5.032,  0.735
 52860,  2.833,  2.333, 18.844,  4.861,  0.622
 52920,  2.846,  2.309, 17.343,  4.881,  0.449
 52980,  2.920,  2.901, 22.431,  5.071,  0.767
 53040,  3.040,  2.816, 19.574,  5.037,  0.839
 53100,  3.051,  3.025, 20.166,  5.266,  0.713
 53160,  3.057,  2.785, 20.110,  5.068,  0.757
 53220,  3.051,  3.105, 19.256,  5.023,  0.904
 53280,  3.034,  3.041, 20.742,  5.317,  0.841
 53340,  3.111,  2.877, 19.760,  5.112,  0.807
 53400,  3.150,  2.987, 21.407,  4.936,  0.891
 53460,  3.222,  2.978, 18.228,  5.161,  0.826
 53520,  3.148,  3.000, 17.767,  5.122,  0.772
 53580,  3.187,  3.184, 22.540,  5.078,  0.854
 53640,  3.247,  3.443, 19.511,  5.084,  0.816
 53700,  3.301,  3.503, 18.339,  5.268,  0.831
 53760,  3.235,  3.534, 20.689,  5.141,  0.921
 53820,  3.244,  3.437, 17.829,  5.291,  0.801
 53880,  3.265,  3.684, 20.899,  5.161,  0.847
 53940,  3.280,  3.484, 19.226,  5.191,  0.776
 54000,  3.216,  3.750, 19.777,  5.300,  0.789
 54060,  3.254,  4.472, 19.733,  5.321,  0.781
 54120,  3.402,  4.535, 17.437,  5.395,  0.748
 54180,  3.472,  4.864, 21.666,  5.373,  0.948
 54240,  3.467,  4.566, 21.004,  5.502,  0.815
 54300, -9999.000, -9999.000, -9999.000, -9999.000, -9999.000
 54360,  3.542,  4.036, 18.284,  5.194,  0.784
 54420,  3.544,  3.989, 15.570,  5.528,  0.668
 54480,  3.572,  4.233, 18.671,  5.300,  0.711
 54540,  3.602,  3.979, 17.840,  5.565,  0.764
 54600,  3.713,  4.264, 18.735,  5.656,  0.752
 54660,  3.693,  5.246, 18.183,  5.993,  0.827
 54720,  3.707,  4.755, 17.807,  5.637,  0.759
 54780,  3.800,  4.479, 18.770,  5.748,  0.822
 54840,  3.805,  4.465, 18.578,  5.797,  0.890
 54900,  3.860,  4.674, 18.418,  5.821,  0.862
 54960,  3.792,  4.676, 19.706,  5.690,  0.965
 55020,  3.817,  5.153, 18.643,  5.949,  0.924
 55080,  3.740,  4.612, 18.939,  5.623,  0.801
 55140,  3.777,  4.132, 17.793,  5.659,  0.499
 55200,  3.813,  5.394, 19.291,  5.710,  0.749
 55260,  3.862,  5.515, 18.420,  5.733,  0.837
 55320,  3.932,  5.794, 19.328,  5.702,  0.868
 55380,  3.978,  5.417, 18.177,  5.984,  0.772
 55440,  3.986,  6.083, 18.072,  5.914,  0.943
 55500,  4.001,  6.792, 19.285,  6.060,  0.932
 55560,  4.201,  7.442, 18.879,  5.940,  0.981
 55620,  4.259,  7.920, 18.945,  6.069,  1.056
 55680,  4.354,  8.064, 18.823,  6.240,  1.008
 55740,  4.238,  8.015, 19.775,  6.189,  0.924
 55800,  4.204,  8.022, 19.683,  6.257,  1.010
 55860,  4.303,  8.555, 19.314,  6.349,  0.885
 55920,  4.414,  8.521, 20.084,  6.351,  0.909
 55980,  4.393,  8.955, 19.966,  6.238,  1.102
 56040,  4.473,  9.186, 20.459,  6.289,  1.065
 56100,  4.455,  8.865, 19.293,  6.109,  1.041
 56160,  4.424,  8.880, 17.654,  5.922,  0.788
 56220,  4.547, 10.158, 18.719,  6.224,  1.009
 56280,  4.571, 11.088, 19.283,  6.130,  1.028
 56340,  4.586, 10.941, 19.460,  6.121,  0.945
 56400,  4.811, 11.806, 19.115,  6.159,  0.877
 56460,  4.681, 11.899, 20.291,  6.390,  0.879
 56520,  4.637, 10.185, 19.308,  6.186,  0.821
 56580,  4.606, 11.241, 20.922,  6.003,  0.905
 56640,  4.552, 10.595, 19.964,  6.074,  0.946
 56700,  4.512,  9.875, 19.885,  6.255,  0.791
 56760,  4.510, 10.219, 19.863,  5.980,  0.828
 56820,  4.658, 10.441, 19.538,  6.214,  0.739
 56880,  4.731, 10.179, 18.884,  6.382,  0.798
 56940,  4.937, 11.245, 19.812,  6.107,  0.883
 57000,  5.048, 11.730, 19.784,  6.202,  0.857
 57060,  5.131, 12.235, 18.875,  6.404,  0.711
 57120,  5.098, 11.493, 19.953,  6.185,  0.697
 57180,  5.093, 11.382, 18.686,  6.345,  0.703
 57240,  4.974, 11.539, 20.078,  6.148,  0.906
 57300,  5.055, 10.792, 19.407,  6.195,  0.779
 57360,  5.013, 10.362, 18.008,  6.383,  0.684
 57420,  5.057, 10.753, 18.428,  6.511,  0.533
 57480,  5.239, 11.713, 19.245,  6.576,  0.589
 57540,  5.180, 11.136, 19.528,  6.554,  0.784
 57600,  5.022, 10.415, 19.928,  6.349,  0.706
 57660,  4.966,  9.739, 19.778,  6.156,  0.757
 57720,  4.892,  9.188, 19.017,  6.106,  0.823
 57780,  4.931,  9.130, 19.278,  6.041,  0.703
 57840,  5.015,  9.566, 16.983,  6.331,  0.561
 57900,  4.645,  9.532, 19.215,  5.956,  0.274
 57960, -9999.000, -9999.000, -9999.000, -9999.000, -9999.000
 58020,  3.863, 10.447, 17.326,  4.676,  0.313
 58080,  3.928, 10.243, 19.987,  4.840,  0.699
 58140,  3.865, 10.056, 20.111,  4.621,  0.522
 58200,  3.963, 10.708, 21.992,  4.852,  0.557
 58260,  3.951, 11.171, 21.205,  4.744,  0.511
 58320,  3.882, 10.529, 21.792,  4.583,  0.399
 58380,  4.110, 10.789, 21.656,  4.868,  0.519
 58440,  4.014, 10.238, 22.707,  4.552,  0.555
 58500,  3.960,  9.424, 21.105,  4.810,  0.355
 58560,  4.107,  9.824, 21.896,  4.845,  0.604
 58620,  3.964,  9.453, 22.287,  5.013,  0.524
 58680,  4.091,  9.823, 21.523,  4.495,  0.569
 58740,  4.180, 10.388, 23.019,  5.180,  0.672
 58800,  4.248,  9.813, 22.576,  5.277,  0.572
 58860,  4.164, 10.373, 23.082,  5.129,  0.571
 58920,  4.183,  9.658, 24.198,  5.307,  0.672
 58980,  4.341,  9.997, 23.259,  5.159,  0.659
 59040,  4.207, 10.303, 22.131,  5.372,  0.635
 59100,  4.399, 11.053, 25.981,  5.256,  0.742
 59160,  4.427, 10.468, 23.755,  5.417,  0.657
 59220,  4.510, 10.591, 25.820,  5.612,  0.836
 59280,  4.536, 10.977, 24.747,  5.316,  0.811
 59340,  4.615, 11.250, 26.549,  5.658,  0.785
 59400,  4.532, 10.951, 25.019,  5.546,  0.776
 59460,  4.639, 10.881, 26.131,  5.633,  0.788
 59520,  4.745, 10.558, 25.961,  5.462,  0.704
 59580,  4.789, 11.444, 27.025,  5.629,  0.795
 59640,  4.813, 11.717, 27.022,  5.884,  0.696
 59700,  4.831, 11.382, 28.344,  5.961,  0.854
 59760,  4.864, 11.037, 28.227,  6.101,  0.829
 59820, -9999.000, -9999.000, -9999.000, -9999.000, -9999.000
 59880,  5.044, 12.381, 28.030,  5.807,  0.776
 59940,  5.008, 12.030, 27.091,  5.933,  0.799
 60000,  5.096, 12.278, 28.425,  5.954,  0.802
 60060,  5.130, 12.486, 29.300,  6.101,  0.892
 60120,  5.246, 12.680, 28.717,  6.035,  0.760
 60180,  5.342, 13.762, 31.003,  6.001,  0.769
 60240,  5.354, 13.630, 31.085,  6.169,  0.818
 60300,  5.315, 12.928, 28.745,  6.091,  0.795
 60360,  5.229, 12.577, 29.732,  5.791,  0.801
 60420,  5.345, 13.115, 28.935,  5.752,  0.643
 60480,  5.256, 13.423, 29.530,  5.782,  0.783
 60540,  5.301, 13.735, 28.989,  5.646,  0.718
 60600,  5.414, 15.178, 29.053,  5.783,  0.816
 60660,  5.494, 14.537, 30.919,  5.823,  0.855
 60720,  5.577, 14.924, 29.337,  5.751,  0.883
 60780,  5.820, 15.797, 29.825,  5.916,  0.677
 60840,  5.835, 15.928, 30.429,  5.862,  0.870
 60900,  5.979, 15.719, 29.059,  6.086,  0.779
 60960,  6.080, 16.385, 30.083,  6.127,  0.861
 61020,  6.070, 15.889, 29.169,  5.870,  0.768
 61080,  6.075, 15.979, 28.822,  5.580,  0.747
 61140,  6.026, 15.943, 28.249,  5.945,  0.787
 61200,  6.000, 15.802, 29.187,  5.823,  0.788
 61260,  6.088, 15.771, 27.727,  5.662,  0.729
 61320,  6.202, 17.065, 28.730,  5.906,  0.702
 61380,  6.353, 17.040, 29.123,  5.882,  0.802
 61440,  6.348, 18.346, 29.859,  5.846,  0.784
 61500,  6.364, 18.512, 30.436,  6.104,  0.808
 61560,  6.372, 18.973, 30.267,  5.890,  0.754
 61620,  6.297, 18.223, 30.711,  5.745,  0.799
 61680, -9999.000, -9999.000, -9999.000, -9999.000, -9999.000
 61740,  6.389, 18.461, 25.604,  5.541,  0.710
 61800,  6.620, 19.272, 28.110,  5.912,  0.823
 61860,  6.690, 20.116, 29.079,  6.155,  0.836
 61920,  6.865, 20.269, 30.166,  6.327,  0.782
 61980,  6.751, 20.151, 29.994,  6.058,  0.819
 62040,  6.675, 19.776, 30.968,  6.071,  0.857
 62100,  6.744, 20.826, 30.871,  6.322,  0.843
 62160,  6.798, 21.366, 31.567,  6.343,  0.861
 62220,  6.789, 20.859, 31.482,  6.205,  0.812
 62280,  6.722, 21.884, 31.916,  6.174,  0.746
 62340,  6.849, 21.512, 32.715,  6.316,  0.955
 62400,  6.826, 22.339, 33.735,  6.215,  0.947
 62460,  6.701, 21.537, 33.045,  6.002,  0.855
 62520,  6.705, 21.695, 34.585,  6.225,  0.852
 62580,  6.775, 21.927, 34.426,  6.075,  0.796
 62640,  6.850, 22.655, 35.327,  6.203,  0.730
 62700,  6.796, 22.716, 35.421,  6.360,  0.662
 62760,  6.778, 22.495, 37.126,  5.960,  0.642
 62820,  6.717, 22.319, 36.407,  5.951,  0.525
 62880,  6.603, 22.096, 37.446,  6.108,  0.568
 62940,  6.421, 21.617, 37.926,  5.747,  0.650
 63000,  6.201, 21.734, 39.124,  5.655,  0.788
 63060,  6.165, 21.552, 39.757,  5.463,  0.686
 63120,  6.023, 21.274, 41.666,  5.549,  0.794
 63180,  6.014, 21.562, 40.893,  5.615,  0.724
 63240,  5.972, 20.747, 41.991,  5.483,  0.586
 63300,  5.876, 21.091, 41.720,  5.519,  0.611
 63360,  5.855, 21.033, 43.036,  5.361,  0.698
 63420,  5.865, 21.287, 41.986,  5.382,  0.527
 63480,  6.026, 21.429, 43.276,  5.435,  0.721
 63540,  5.790, 18.877, 39.896,  5.431,  0.527
 63600,  5.689, 19.808, 41.921,  5.509,  0.606
 63660,  5.778, 20.098, 44.619,  5.537,  0.696
 63720,  5.733, 19.811, 43.142,  5.600,  0.586
 63780,  5.875, 20.844, 49.461,  5.905,  0.779
 63840,  5.570, 19.250, 48.127,  5.520,  0.705
 63900,  5.409, 18.676, 46.910,  5.300,  0.552
 63960,  5.502, 19.394, 48.160,  5.331,  0.664
 64020,  5.729, 20.375, 47.301,  5.265,  0.573
 64080,  5.737, 20.586, 46.447,  5.377,  0.508
 64140,  6.256, 21.504, 45.767,  5.258,  0.621
 64200,  6.579, 22.498, 42.713,  6.059,  0.721
 64260,  6.860, 22.119, 45.099,  6.168,  0.843
 64320,  7.065, 22.433, 43.930,  6.499,  0.807
 64380,  7.440, 22.143, 41.305,  6.831,  0.885
 64440,  7.420, 20.930, 40.922,  6.786,  0.958
 64500,  7.559, 19.678, 36.798,  6.713,  1.025
 64560,  7.404, 18.683, 32.242,  7.034,  0.928
 64620,  7.141, 18.396, 34.808,  6.981,  1.209
 64680,  6.967, 17.857, 33.144,  6.916,  1.199
 64740,  7.072, 18.176, 30.483,  6.671,  1.101
 64800,  6.939, 17.435, 28.830,  6.762,  1.106
 64860,  5.919, 14.252, 27.297,  6.009,  1.029
 64920,  4.858, 10.830, 25.282,  4.990,  0.758
 64980,  5.218, 10.707, 26.909,  5.525,  0.831
 65040,  5.745, 11.348, 28.679,  6.154,  0.866
 65100,  5.465, 10.078, 27.305,  5.668,  0.657
 65160,  6.615,  9.900, 29.759,  6.995,  0.680
 65220,  6.782,  9.907, 33.165,  7.283,  0.812
 65280,  6.155,  9.821, 32.415,  6.627,  0.809
 65340, -9999.000, -9999.000, -9999.000, -9999.000, -9999.000
 65400,  6.592,  8.675, 33.507,  7.453,  0.528
 65460,  6.592,  8.580, 32.175,  7.336,  0.652
 65520,  6.718,  9.160, 32.083,  7.551,  0.529
 65580,  7.049,  9.179, 38.854,  8.250,  0.700
 65640,  7.121,  9.345, 41.129,  8.122,  0.759
 65700,  7.333,  9.469, 42.114,  8.476,  0.821
 65760,  7.463,  9.884, 46.179,  8.829,  0.926
 65820,  6.841,  9.367, 44.426,  8.219,  0.795
 65880,  5.783,  8.845, 39.702,  7.061,  0.652
 65940,  5.459,  8.527, 38.492,  6.708,  0.665
 66000,  5.230,  8.624, 36.693,  6.561,  0.698
 66060,  4.655,  7.310, 34.040,  5.728,  0.588
 66120,  4.315,  7.651, 29.943,  5.249,  0.557
 66180,  4.146,  7.797, 32.135,  4.920,  0.653
 66240,  4.144,  8.434, 31.848,  4.937,  0.510
 66300,  4.125,  8.563, 29.354,  4.777,  0.528
 66360,  4.200,  8.930, 31.671,  4.946,  0.583
 66420,  4.116,  9.517, 30.791,  4.763,  0.533
 66480,  4.372, 10.205, 34.036,  5.167,  0.568
 66540,  4.567, 10.631, 35.616,  5.386,  0.574
 66600,  4.635, 11.656, 36.601,  5.422,  0.609
 66660,  4.444, 11.476, 36.312,  4.939,  0.598
 66720,  4.617, 11.923, 40.324,  5.243,  0.636
 66780,  4.314, 12.231, 37.923,  4.671,  0.586
 66840,  4.537, 13.291, 40.148,  4.709,  0.648
 66900,  4.609, 13.773, 41.796,  5.002,  0.599
 66960,  4.634, 13.728, 41.438,  4.947,  0.517
 67020,  4.702, 14.426, 42.366,  4.898,  0.575
 67080,  4.647, 13.784, 41.456,  4.697,  0.617
 67140,  4.641, 14.858, 39.711,  4.393,  0.578
 67200,  4.796, 13.684, 41.961,  5.121,  0.186
 67260,  4.609, 14.870, 37.369,  4.416,  0.493
 67320,  4.616, 14.608, 38.050,  4.436,  0.532
 67380,  4.553, 14.558, 37.455,  4.345,  0.574
 67440,  4.446, 14.765, 36.977,  4.087,  0.510
 67500,  4.430, 14.413, 36.834,  4.304,  0.448
 67560,  4.567, 13.802, 36.811,  4.044,  0.499
 67620,  4.551, 14.031, 37.927,  4.084,  0.436
 67680,  4.574, 14.200, 37.016,  4.133,  0.521
 67740,  4.510, 13.794, 38.402,  4.087,  0.550
 67800,  4.599, 14.246, 38.812,  4.094,  0.501
 67860,  4.652, 15.216, 40.027,  4.166,  0.533
 67920,  4.583, 15.172, 40.461,  4.194,  0.471
 67980,  4.436, 15.634, 39.786,  4.031,  0.516
 68040,  4.415, 15.752, 39.526,  3.886,  0.488
 68100,  4.602, 16.314, 41.505,  4.036,  0.554
 68160,  4.706, 17.152, 43.409,  4.046,  0.499
 68220,  4.838, 18.299, 45.889,  4.251,  0.524
 68280,  4.975, 18.354, 47.045,  4.227,  0.585
 68340,  4.949, 19.015, 48.736,  4.128,  0.541
 68400,  5.085, 19.863, 48.990,  4.131,  0.561
 68460,  5.164, 20.995, 50.995,  4.250,  0.555
 68520,  5.142, 21.714, 52.863,  4.284,  0.570
 68580,  5.424, 22.708, 54.657,  4.468,  0.627
 68640,  5.313, 23.500, 56.375,  4.532,  0.557
 68700,  5.338, 24.470, 61.314,  4.433,  0.591
 68760,  5.297, 24.653, 61.799,  4.576,  0.610
 68820,  5.313, 25.676, 62.795,  4.528,  0.521
 68880,  5.290, 25.542, 62.724,  4.127,  0.592
 68940,  5.257, 24.967, 63.137,  4.307,  0.581
 69000,  5.067, 24.743, 60.117,  4.178,  0.560
 69060, -9999.000, -9999.000, -9999.000, -9999.000, -9999.000
 69120,  4.772, 25.220, 52.698,  3.968,  0.489
 69180,  4.912, 24.515, 55.993,  3.771,  0.558
 69240,  4.942, 24.154, 54.859,  3.769,  0.512
 69300,  5.186, 22.640, 56.015,  4.143,  0.486
 69360,  5.362, 22.309, 55.949,  4.015,  0.555
 69420,  5.391, 22.833, 57.276,  4.188,  0.538
 69480,  5.532, 22.189, 58.140,  4.170,  0.522
 69540,  5.438, 22.560, 59.624,  4.062,  0.489
 69600,  5.409, 22.271, 58.619,  4.207,  0.534
 69660,  5.124, 21.031, 58.430,  4.165,  0.556
 69720,  5.074, 20.953, 57.315,  4.160,  0.516
 69780,  5.035, 21.490, 59.015,  4.288,  0.410
 69840,  5.078, 21.734, 59.897,  4.034,  0.528
 69900,  5.141, 22.002, 60.526,  3.991,  0.507
 69960,  5.028, 22.022, 59.839,  3.971,  0.521
 70020,  5.022, 19.836, 56.082,  4.094,  0.441
 70080,  4.987, 20.958, 56.786,  4.114,  0.427
 70140,  5.130, 24.507, 62.466,  3.988,  0.424
 70200,  5.139, 26.029, 70.315,  4.021,  0.530
 70260,  5.162, 26.319, 70.521,  4.109,  0.468
 70320,  5.354, 27.993, 71.974,  4.124,  0.530
 70380,  5.337, 28.767, 78.029,  4.221,  0.542
 70440,  5.502, 29.019, 80.340,  4.341,  0.579
 70500,  5.602, 28.011, 75.712,  4.582,  0.589
 70560,  5.524, 27.145, 74.123,  4.475,  0.504
 70620,  5.696, 26.553, 74.236,  4.585,  0.541
 70680,  5.747, 27.154, 77.602,  4.529,  0.520
 70740,  5.861, 27.896, 79.650,  4.431,  0.674
 70800,  6.069, 28.066, 81.674,  4.575,  0.591
 70860,  6.131, 28.316, 82.607,  4.565,  0.613
 70920,  6.154, 26.065, 72.487,  4.659,  0.428
 70980,  6.192, 27.569, 77.370,  4.596,  0.478
 71040,  6.379, 28.250, 83.856,  4.763,  0.568
 71100,  6.401, 29.935, 90.613,  4.824,  0.603
 71160,  6.584, 31.590, 96.320,  4.675,  0.591
 71220,  6.586, 30.766, 96.221,  4.849,  0.624
 71280,  6.551, 30.371, 97.583,  4.804,  0.637
 71340,  6.640, 31.513, 99.337,  4.862,  0.578
 71400,  6.774, 31.632, 99.098,  4.770,  0.681
 71460,  6.768, 31.599, 100.104,  4.706,  0.646
 71520,  6.919, 30.549, 95.523,  4.638,  0.551
 71580,  7.306, 27.272, 86.763,  4.695,  0.448
 71640,  7.079, 28.897, 94.073,  4.554,  0.625
 71700,  7.153, 28.967, 95.027,  4.474,  0.525
 71760,  7.179, 30.457, 96.677,  4.663,  0.584
 71820,  7.337, 30.949, 99.655,  4.597,  0.650
 71880,  7.332, 30.010, 93.804,  4.567,  0.587
 71940,  7.525, 30.370, 93.438,  4.519,  0.549
 72000,  7.741, 29.505, 93.061,  4.508,  0.531
 72060,  7.498, 29.081, 91.567,  4.692,  0.604
 72120,  7.221, 31.193, 95.596,  4.557,  0.518
 72180,  7.202, 30.744, 98.088,  4.455,  0.622
 72240,  7.310, 30.850, 99.195,  4.365,  0.552
 72300,  7.444, 32.701, 108.266,  4.536,  0.645
 72360,  7.471, 33.729, 110.639,  4.584,  0.505
 72420,  7.440, 32.191, 110.117,  4.592,  0.618
 72480,  8.081, 32.999, 104.939,  4.588,  0.579
 72540,  8.162, 34.851, 107.290,  4.712,  0.651
 72600,  8.085, 34.724, 109.869,  4.687,  0.727
 72660,  8.165, 33.392, 107.361,  4.525,  0.622
 72720,  8.120, 33.199, 107.532,  4.763,  0.505
 72780,  8.095, 32.750, 90.967,  4.322,  0.010
 72840,  8.103, 31.926, 95.936,  4.533,  0.568
 72900,  8.260, 33.733, 104.750,  4.521,  0.585
 72960,  8.315, 32.648, 105.098,  4.651,  0.654
 73020,  9.139, 30.117, 97.830,  4.765,  0.558
 73080,  9.285, 28.881, 93.145,  4.835,  0.474
 73140,  9.763, 27.970, 89.402,  5.027,  0.610
 73200,  9.251, 31.452, 99.405,  4.953,  0.652
 73260,  8.856, 34.875, 114.812,  4.871,  0.640
 73320,  9.158, 35.228, 113.600,  5.017,  0.595
 73380,  9.538, 31.380, 104.241,  4.791,  0.593
 73440,  9.727, 30.508, 100.196,  4.879,  0.551
 73500,  9.622, 34.824, 112.822,  4.955,  0.638
 73560,  9.573, 36.614, 122.961,  4.740,  0.701
 73620,  9.442, 35.862, 124.125,  5.099,  0.685
 73680,  9.585, 34.608, 124.594,  5.098,  0.612
 73740, 10.032, 32.344, 115.838,  5.036,  0.625
 73800, 11.264, 24.176, 87.720,  5.385,  0.478
 73860, 11.794, 23.395, 81.061,  5.423,  0.468
 73920, 11.784, 23.081, 78.855,  5.408,  0.404
 73980, 11.800, 23.916, 80.752,  5.707,  0.474
 74040, 11.587, 23.308, 83.489,  5.510,  0.557
 74100, 10.336, 28.604, 100.197,  5.216,  0.522
 74160, 10.071, 30.850, 105.400,  5.001,  0.622
 74220, 10.645, 30.653, 105.787,  5.533,  0.580
 74280, 10.220, 32.440, 117.766,  5.364,  0.562
 74340, 10.091, 32.039, 119.770,  5.141,  0.586
 74400, 10.405, 28.092, 105.164,  5.245,  0.457
 74460, 10.799, 24.458, 90.824,  5.248,  0.462
 74520, 11.151, 23.457, 82.542,  5.213,  0.522
 74580, 10.734, 24.542, 86.634,  5.347,  0.420
 74640, 11.114, 21.841, 68.510,  5.040,  0.353
 74700, 11.426, 21.092, 70.669,  5.527,  0.407
 74760, 11.253, 20.928, 72.402,  5.551,  0.451
 74820, 10.874, 22.956, 79.680,  5.513,  0.524
 74880, 10.725, 24.086, 83.406,  5.476,  0.494
 74940, 10.815, 23.783, 85.546,  5.213,  0.546
 75000, 10.508, 24.027, 86.402,  5.180,  0.433
 75060, 10.395, 23.909, 88.684,  5.178,  0.479
 75120, 10.188, 21.932, 81.959,  5.016,  0.373
 75180, 10.370, 18.818, 70.503,  5.102,  0.372
 75240, 10.148, 18.613, 68.314,  5.021,  0.400
 75300, 10.170, 19.112, 65.642,  5.117,  0.385
 75360, 10.593, 18.755, 63.028,  5.072,  0.325
 75420, 10.734, 18.021, 59.797,  5.185,  0.282
 75480, 10.612, 17.996, 61.625,  5.206,  0.363
 75540, 10.729, 17.347, 58.254,  5.144,  0.380
 75600, 10.492, 17.185, 57.722,  5.101,  0.327
 75660, 10.546, 16.568, 56.733,  5.207,  0.322
 75720, 10.474, 16.813, 56.496,  5.257,  0.244
 75780, 10.071, 16.315, 53.259,  5.074,  0.292
 75840, 10.015, 16.232, 55.315,  4.973,  0.287
 75900, 10.509, 17.493, 58.494,  5.353,  0.339
 75960, 10.397, 16.471, 59.055,  4.944,  0.231
 76020, 10.323, 16.792, 59.771,  5.406,  0.282
 76080, 10.213, 16.769, 58.545,  5.193,  0.304
 76140, 10.312, 16.933, 57.821,  5.172,  0.329
 76200, 10.209, 16.246, 58.897,  5.192,  0.376
 76260,  9.998, 16.622, 58.584,  5.145,  0.347
 76320,  9.798, 16.116, 59.485,  5.070,  0.371
 76380,  9.601, 14.972, 59.080,  5.135,  0.320
 76440, -9999.000, -9999.000, -9999.000, -9999.000, -9999.000
 76500,  9.536, 15.241, 48.011,  4.770,  0.271
 76560,  9.765, 15.682, 49.159,  5.025,  0.318
 76620,  9.833, 15.846, 50.696,  4.932,  0.361
 76680,  9.713, 15.623, 52.933,  5.237,  0.365
 76740, 10.193, 17.102, 51.539,  5.321,  0.282
 76800, 10.281, 17.055, 54.433,  5.252,  0.401
 76860, 10.435, 16.448, 55.730,  5.482,  0.341
 76920, 10.264, 16.385, 55.822,  5.309,  0.401
 76980, 10.210, 15.331, 54.171,  5.265,  0.330
 77040,  9.932, 15.611, 53.198,  5.146,  0.284
 77100,  9.638, 15.142, 52.971,  4.934,  0.374
 77160,  9.884, 15.338, 53.697,  5.115,  0.364
 77220,  9.913, 16.044, 52.255,  5.219,  0.339
 77280,  9.774, 15.753, 51.839,  5.035,  0.371
 77340,  9.497, 16.019, 51.703,  5.143,  0.402
 77400,  9.567, 15.328, 52.250,  4.917,  0.420
 77460,  9.568, 16.008, 52.695,  4.914,  0.417
 77520,  9.638, 16.631, 52.664,  4.995,  0.416
 77580,  9.636, 16.482, 53.424,  4.986,  0.493
 77640,  9.496, 16.904, 53.233,  4.806,  0.499
 77700,  9.880, 16.083, 53.833,  5.014,  0.457
 77760, 10.042, 16.322, 53.811,  4.911,  0.409
 77820, 10.278, 17.409, 53.007,  4.830,  0.355
 77880, 10.049, 16.618, 56.539,  5.070,  0.363
 77940, 10.024, 16.730, 59.209,  4.918,  0.389
 78000,  9.819, 17.142, 59.988,  5.038,  0.322
 78060,  9.877, 16.586, 60.345,  4.939,  0.357
 78120,  9.617, 15.788, 59.034,  4.840,  0.385
 78180,  9.883, 16.524, 60.193,  4.983,  0.168
 78240,  9.695, 15.847, 60.876,  4.700,  0.308
 78300, -9999.000, -9999.000, -9999.000, -9999.000, -9999.000
 78360,  9.552, 16.696, 52.818,  4.956,  0.316
 78420,  9.638, 16.659, 60.001,  5.067,  0.269
 78480,  6.894, 13.309, 51.254,  4.463,  0.271
 78540,  4.888,  9.989, 37.630,  3.993,  0.181
 78600,  4.490,  9.100, 34.251,  3.839,  0.171
 78660,  3.593,  7.012, 23.471,  3.332,  0.124
 78720,  3.925,  7.353, 22.233,  3.621,  0.145
 78780,  3.859,  7.047, 21.947,  3.381,  0.111
 78840,  3.913,  7.091, 20.865,  3.456,  0.039
 78900,  4.045,  7.177, 20.982,  3.712,  0.110
 78960,  4.636,  6.879, 25.810,  4.355,  0.110
 79020,  4.559,  7.180, 28.316,  4.357,  0.170
 79080,  4.611,  6.820, 25.818,  4.406,  0.159
 79140,  4.586,  6.748, 26.068,  4.306,  0.155
 79200,  4.880,  7.519, 26.904,  4.622,  0.199
 79260,  5.238,  7.872, 32.163,  5.107,  0.196
 79320,  4.837,  7.792, 29.601,  4.548,  0.182
 79380,  5.634,  8.045, 34.573,  5.730,  0.209
 79440,  6.027,  8.453, 39.552,  5.851,  0.325
 79500,  6.277,  9.088, 42.867,  6.479,  0.236
 79560,  6.403,  8.918, 44.604,  6.337,  0.405
 79620,  6.179,  8.651, 45.265,  6.119,  0.373
 79680,  6.424,  9.342, 46.137,  6.124,  0.340
 79740,  6.649,  9.424, 47.879,  6.271,  0.379
 79800,  6.894, 10.190, 50.195,  6.502,  0.491
 79860,  7.104, 11.017, 52.074,  6.251,  0.381
 79920,  7.145, 11.381, 49.084,  6.022,  0.420
 79980,  7.252, 11.712, 53.435,  6.314,  0.464
 80040,  6.685, 11.511, 49.067,  5.558,  0.388
 80100,  6.631, 11.944, 47.568,  5.647,  0.270
 80160, -9999.000, -9999.000, -9999.000, -9999.000, -9999.000
 80220,  6.571, 11.343, 41.614,  5.349,  0.357
 80280,  5.384,  9.954, 40.038,  4.765,  0.390
 80340,  4.834,  8.728, 34.992,  4.142,  0.305
 80400,  4.691,  8.047, 31.656,  3.863,  0.227
 80460,  4.760,  8.194, 32.157,  3.845,  0.297
 80520,  4.748,  7.829, 31.356,  3.769,  0.258
 80580,  4.811,  7.730, 30.793,  3.622,  0.187
 80640,  4.895,  8.470, 31.920,  3.915,  0.362
 80700,  5.126,  8.806, 32.111,  3.965,  0.389
 80760,  5.028,  9.091, 32.155,  4.215,  0.347
 80820,  5.249,  9.325, 33.087,  4.349,  0.326
 80880,  5.136,  9.041, 31.098,  4.055,  0.410
 80940,  5.101,  9.824, 29.727,  4.086,  0.424
 81000,  5.136, 10.039, 29.505,  4.234,  0.359
 81060,  5.277,  9.955, 30.868,  4.401,  0.419
 81120,  5.219, 10.773, 32.868,  4.215,  0.460
 81180,  5.072,  9.882, 31.470,  4.170,  0.388
 81240,  4.960,  9.067, 29.299,  3.953,  0.444
 81300,  4.964,  8.844, 27.130,  4.155,  0.362
 81360,  5.097,  9.168, 29.307,  4.107,  0.368
 81420,  5.266,  9.208, 29.464,  4.311,  0.430
 81480,  5.204, 10.225, 31.580,  3.975,  0.415
 81540,  5.026,  9.662, 32.688,  4.279,  0.502
 81600,  4.955,  9.711, 30.240,  4.037,  0.363
 81660,  4.825,  9.245, 31.352,  4.298,  0.467
 81720,  4.849, 10.306, 28.957,  4.224,  0.491
 81780,  4.834, 10.084, 30.309,  4.281,  0.484
 81840,  4.525,  9.306, 30.035,  4.139,  0.444
 81900,  4.475,  9.303, 28.089,  4.084,  0.510
 81960,  4.656, 10.017, 30.526,  4.193,  0.452
 82020,  4.298,  9.510, 23.956,  3.939,  0.451
 82080,  4.467, 10.895, 25.762,  4.110,  0.395
 82140,  4.546, 11.009, 26.965,  4.205,  0.495
 82200,  4.526, 10.456, 26.098,  4.002,  0.460
 82260,  4.256,  9.905, 25.746,  4.076,  0.395
 82320,  4.329,  9.566, 26.869,  3.841,  0.417
 82380,  4.150,  9.521, 25.697,  3.744,  0.374
 82440,  4.007,  8.575, 26.021,  3.799,  0.271
 82500,  4.196,  8.703, 25.876,  3.885,  0.268
 82560,  4.094,  7.835, 24.587,  3.641,  0.284
 82620,  4.094,  7.938, 25.546,  3.554,  0.195
 82680,  3.980,  7.103, 23.942,  3.501,  0.168
 82740,  4.094,  6.160, 23.429,  3.708,  0.175
 82800,  4.050,  6.175, 22.716,  3.538,  0.165
 82860,  4.083,  6.550, 22.298,  3.580,  0.146
 82920,  4.295,  7.414, 24.709,  3.574,  0.218
 82980,  4.302,  8.091, 25.193,  3.800,  0.170
 83040,  4.183,  7.609, 26.745,  3.639,  0.119
 83100,  4.313,  6.923, 24.442,  3.666,  0.162
 83160,  4.416,  6.808, 24.816,  3.501,  0.130
 83220,  4.363,  6.343, 24.886,  3.451,  0.087
 83280,  4.385,  7.031, 26.070,  3.607,  0.089
 83340,  4.327,  6.939, 25.914,  3.516,  0.066
 83400,  4.370,  8.107, 25.535,  3.422,  0.096
 83460,  4.270,  7.764, 27.343,  3.588,  0.038
 83520,  4.646,  9.736, 29.446,  3.746,  0.087
 83580,  4.856, 12.868, 33.920,  3.964,  0.154
 83640,  5.213, 14.715, 35.462,  4.071,  0.198
 83700,  5.530, 16.551, 38.561,  4.342,  0.224
 83760,  5.499, 15.215, 37.782,  4.331,  0.167
 83820, -9999.000, -9999.000, -9999.000, -9999.000, -9999.000
 83880,  4.954, 13.328, 30.173,  4.158,  0.276
 83940,  5.080, 12.745, 32.056,  4.054,  0.098
 84000,  4.991, 12.372, 33.821,  4.145,  0.211
 84060,  4.846, 11.515, 33.565,  3.997,  0.288
 84120,  4.739, 10.628, 33.143,  4.025,  0.314
 84180,  4.577,  9.408, 30.133,  3.764,  0.104
 84240,  4.639,  8.756, 28.949,  3.629,  0.107
 84300,  4.585,  8.364, 29.137,  3.749,  0.155
 84360,  4.713,  9.362, 30.350,  3.815,  0.063
 84420,  4.708,  9.698, 31.698,  3.826,  0.107
 84480,  4.747, 10.061, 30.347,  3.835,  0.158
 84540,  4.644,  9.035, 29.673,  3.695,  0.173
 84600,  4.553,  7.960, 27.889,  3.687,  0.162
 84660,  4.511,  7.453, 26.164,  3.555,  0.098
 84720,  4.475,  7.403, 26.442,  3.524,  0.107
 84780,  4.637,  7.408, 27.990,  3.697,  0.151
 84840,  4.512,  7.107, 26.569,  3.492,  0.098
 84900,  4.495,  7.590, 26.277,  3.729,  0.068
 84960,  4.549,  7.518, 26.629,  3.909,  0.090
 85020,  4.673,  8.013, 26.822,  3.590,  0.134
 85080,  4.545,  7.807, 26.152,  3.656,  0.166
 85140,  4.663,  9.545, 29.037,  3.698,  0.244
 85200,  4.947, 10.081, 32.260,  4.017,  0.284
 85260,  4.970, 10.597, 31.596,  4.048,  0.202
 85320,  5.116, 12.989, 33.729,  3.874,  0.218
 85380,  5.269, 14.502, 37.568,  4.153,  0.246
 85440,  5.388, 14.753, 39.345,  4.153,  0.261
 85500,  5.234, 12.407, 35.856,  4.127,  0.276
 85560,  5.060, 11.016, 32.308,  3.996,  0.188
 85620,  5.143, 10.401, 32.334,  4.132,  0.235
 85680, -9999.000, -9999.000, -9999.000, -9999.000, -9999.000
 85740,  5.083,  9.527, 29.886,  4.202,  0.159
 85800,  5.262, 10.322, 30.922,  4.145,  0.205
 85860,  5.032, 10.149, 30.936,  3.913,  0.189
 85920,  5.132,  9.948, 31.532,  4.163,  0.247
 85980,  5.221,  9.546, 33.779,  4.040,  0.233
 86040,  5.069, 10.212, 32.544,  4.066,  0.287
 86100,  5.193, 10.351, 33.947,  3.976,  0.212
 86160,  5.068, 10.615, 33.778,  4.053,  0.166
 86220,  4.990, 10.580, 32.551,  4.129,  0.232
 86280,  5.059,  9.602, 32.682,  4.081,  0.184
 86340,  5.005,  9.418, 29.478,  3.958,  0.274
