34, 1001
Carrie Womack
NOAA Chemical Sciences Laboratory
2B Tech O3 UV Analyzer
USOS
1, 1
2024, 07, 29, 2024, 12, 21
60
Time_Start, seconds_past_midnight, Seconds from midnight UTC
1
1
-9999
O3_ppb, ppb, Ozone from 2B Tech UV Analyzer
1
SPECIAL COMMENTS:
18
PI_CONTACT_INFO: Address: 325 Broadway R/CSL7, Boulder, CO, 80305
PLATFORM: CSL Mobile Lab
LOCATION: Salt Lake City, UT
ASSOCIATED_DATA: N/A
INSTRUMENT_INFO: N/A
DATA_INFO: Units:
UNCERTAINTY: N/A
ULOD_FLAG: -7777
ULOD_VALUE: N/A
LLOD_FLAG: -8888
LLOD_VALUE: N/A
DM_CONTACT_INFO: Data Manager: Nate Howard
PROJECT_INFO: 
STIPULATIONS_ON_USE: Use of these data require prior ok from PI.
OTHER_COMMENTS: N/A
REVISION: R0
R0: Final data. RA: Preliminary Data.  For in-field use only.
Time_Start, O3_ppb
0.0,71.2
60.0,70.3
120.0,70.5
180.0,71.7
240.0,72.3
300.0,70.6
360.0,71.1
420.0,72.8
480.0,72.2
540.0,71.5
600.0,71.8
660.0,71.1
720.0,71.2
780.0,70.5
840.0,69.9
900.0,70.8
960.0,71.1
1020.0,70.9
1080.0,70.1
1140.0,68.8
1200.0,70.5
1260.0,69.7
1320.0,70.7
1380.0,68.7
1440.0,70.7
1500.0,71.6
1560.0,71.8
1620.0,71.3
1680.0,70.3
1740.0,69.7
1800.0,71.0
1860.0,71.2
1920.0,70.4
1980.0,70.7
2040.0,70.7
2100.0,72.1
2160.0,71.0
2220.0,71.3
2280.0,71.4
2340.0,71.9
2400.0,70.7
2460.0,71.5
2520.0,70.4
2580.0,71.0
2640.0,68.2
2700.0,70.2
2760.0,69.9
2820.0,69.1
2880.0,69.6
2940.0,68.1
3000.0,68.8
3060.0,69.6
3120.0,71.4
3180.0,71.1
3240.0,70.2
3300.0,71.1
3360.0,66.9
3420.0,68.1
3480.0,69.5
3540.0,66.3
3600.0,67.1
3660.0,69.7
3720.0,69.0
3780.0,69.0
3840.0,70.6
3900.0,69.4
3960.0,68.9
4020.0,69.5
4080.0,69.0
4140.0,69.6
4200.0,70.4
4260.0,70.0
4320.0,68.0
4380.0,67.2
4440.0,68.6
4500.0,68.7
4560.0,68.6
4620.0,69.3
4680.0,68.9
4740.0,69.6
4800.0,69.6
4860.0,69.6
4920.0,69.2
4980.0,68.3
5040.0,69.1
5100.0,68.9
5160.0,69.1
5220.0,68.4
5280.0,67.9
5340.0,67.7
5400.0,69.5
5460.0,67.4
5520.0,67.9
5580.0,68.5
5640.0,67.7
5700.0,68.3
5760.0,68.3
5820.0,67.3
5880.0,66.5
5940.0,68.0
6000.0,68.4
6060.0,66.8
6120.0,65.5
6180.0,64.9
6240.0,66.1
6300.0,67.8
6360.0,67.3
6420.0,65.5
6480.0,64.6
6540.0,66.3
6600.0,67.0
6660.0,66.7
6720.0,65.9
6780.0,66.8
6840.0,66.7
6900.0,67.2
6960.0,66.7
7020.0,67.6
7080.0,67.8
7140.0,67.1
7200.0,67.8
7260.0,66.6
7320.0,65.8
7380.0,67.2
7440.0,67.3
7500.0,66.5
7560.0,67.0
7620.0,67.0
7680.0,67.4
7740.0,67.0
7800.0,67.0
7860.0,67.7
7920.0,67.7
7980.0,66.7
8040.0,67.7
8100.0,66.8
8160.0,65.9
8220.0,67.0
8280.0,66.3
8340.0,64.4
8400.0,65.2
8460.0,65.3
8520.0,64.1
8580.0,64.9
8640.0,63.9
8700.0,64.5
8760.0,63.8
8820.0,63.1
8880.0,63.4
8940.0,64.2
9000.0,63.4
9060.0,63.8
9120.0,62.9
9180.0,64.2
9240.0,64.1
9300.0,63.4
9360.0,63.2
9420.0,63.1
9480.0,61.2
9540.0,62.6
9600.0,61.4
9660.0,58.5
9720.0,59.9
9780.0,61.0
9840.0,61.9
9900.0,60.3
9960.0,60.2
10020.0,60.3
10080.0,61.0
10140.0,60.4
10200.0,59.3
10260.0,58.9
10320.0,60.0
10380.0,59.2
10440.0,58.3
10500.0,58.5
10560.0,59.5
10620.0,57.2
10680.0,57.5
10740.0,58.0
10800.0,56.2
10860.0,54.7
10920.0,53.8
10980.0,56.9
11040.0,55.1
11100.0,54.2
11160.0,54.7
11220.0,57.2
11280.0,57.9
11340.0,56.0
11400.0,56.7
11460.0,56.2
11520.0,57.5
11580.0,56.5
11640.0,58.0
11700.0,58.5
11760.0,57.7
11820.0,58.3
11880.0,58.0
11940.0,58.1
12000.0,58.7
12060.0,58.7
12120.0,59.6
12180.0,59.8
12240.0,59.4
12300.0,59.5
12360.0,58.7
12420.0,59.8
12480.0,60.0
12540.0,61.4
12600.0,59.7
12660.0,59.9
12720.0,58.9
12780.0,58.3
12840.0,59.2
12900.0,60.2
12960.0,60.4
13020.0,59.3
13080.0,60.2
13140.0,60.5
13200.0,59.3
13260.0,59.0
13320.0,58.9
13380.0,60.5
13440.0,59.5
13500.0,60.2
13560.0,61.1
13620.0,59.7
13680.0,57.9
13740.0,57.3
13800.0,58.0
13860.0,58.5
13920.0,60.4
13980.0,61.2
14040.0,59.8
14100.0,59.1
14160.0,59.0
14220.0,57.6
14280.0,56.2
14340.0,56.5
14400.0,56.5
14460.0,58.7
14520.0,61.8
14580.0,61.1
14640.0,59.1
14700.0,59.7
14760.0,58.5
14820.0,57.2
14880.0,56.8
14940.0,58.7
15000.0,57.6
15060.0,57.9
15120.0,57.3
15180.0,56.8
15240.0,60.3
15300.0,60.9
15360.0,60.5
15420.0,60.0
15480.0,60.4
15540.0,60.9
15600.0,59.6
15660.0,61.2
15720.0,60.1
15780.0,61.2
15840.0,62.3
15900.0,58.8
15960.0,60.3
16020.0,63.3
16080.0,61.2
16140.0,60.0
16200.0,59.7
16260.0,61.9
16320.0,62.2
16380.0,61.6
16440.0,61.5
16500.0,62.1
16560.0,62.0
16620.0,63.8
16680.0,64.3
16740.0,64.9
16800.0,64.0
16860.0,64.2
16920.0,64.0
16980.0,63.7
17040.0,64.9
17100.0,63.5
17160.0,63.0
17220.0,59.2
17280.0,66.1
17340.0,63.8
17400.0,61.7
17460.0,60.4
17520.0,63.4
17580.0,62.5
17640.0,61.0
17700.0,63.0
17760.0,62.5
17820.0,62.8
17880.0,59.2
17940.0,59.2
18000.0,63.4
18060.0,62.5
18120.0,63.0
18180.0,64.4
18240.0,64.8
18300.0,64.7
18360.0,64.4
18420.0,64.2
18480.0,65.2
18540.0,65.6
18600.0,64.2
18660.0,65.2
18720.0,65.2
18780.0,63.6
18840.0,63.8
18900.0,63.8
18960.0,64.3
19020.0,64.5
19080.0,59.8
19140.0,59.4
19200.0,63.4
19260.0,64.0
19320.0,63.8
19380.0,64.6
19440.0,64.5
19500.0,63.5
19560.0,63.6
19620.0,63.4
19680.0,63.1
19740.0,61.5
19800.0,62.4
19860.0,64.2
19920.0,62.4
19980.0,63.9
20040.0,57.0
20100.0,63.2
20160.0,63.6
20220.0,64.5
20280.0,65.5
20340.0,63.4
20400.0,61.5
20460.0,62.4
20520.0,62.8
20580.0,59.7
20640.0,62.9
20700.0,63.0
20760.0,62.7
20820.0,62.0
20880.0,61.1
20940.0,62.1
21000.0,61.8
21060.0,60.1
21120.0,58.5
21180.0,59.5
21240.0,58.9
21300.0,57.9
21360.0,58.6
21420.0,61.4
21480.0,60.3
21540.0,63.8
21600.0,64.3
21660.0,64.4
21720.0,65.2
21780.0,64.3
21840.0,64.3
21900.0,61.9
21960.0,59.0
22020.0,58.9
22080.0,61.8
22140.0,60.1
22200.0,61.6
22260.0,60.7
22320.0,60.0
22380.0,60.9
22440.0,59.2
22500.0,59.3
22560.0,59.3
22620.0,59.1
22680.0,58.3
22740.0,56.4
22800.0,53.7
22860.0,53.9
22920.0,51.7
22980.0,51.1
23040.0,50.4
23100.0,49.6
23160.0,49.1
23220.0,47.7
23280.0,47.9
23340.0,48.1
23400.0,47.3
23460.0,48.3
23520.0,47.9
23580.0,46.5
23640.0,47.5
23700.0,48.4
23760.0,47.8
23820.0,48.6
23880.0,48.3
23940.0,47.7
24000.0,48.9
24060.0,49.3
24120.0,49.0
24180.0,50.0
24240.0,49.7
24300.0,47.9
24360.0,47.9
24420.0,49.4
24480.0,48.8
24540.0,47.5
24600.0,47.9
24660.0,46.9
24720.0,49.2
24780.0,49.1
24840.0,49.0
24900.0,49.7
24960.0,48.1
25020.0,46.5
25080.0,46.4
25140.0,45.7
25200.0,43.0
25260.0,44.9
25320.0,44.8
25380.0,47.4
25440.0,45.4
25500.0,45.8
25560.0,46.7
25620.0,45.4
25680.0,42.6
25740.0,42.1
25800.0,41.9
25860.0,46.1
25920.0,44.2
25980.0,44.8
26040.0,40.9
26100.0,39.9
26160.0,43.4
26220.0,43.7
26280.0,43.3
26340.0,43.9
26400.0,45.1
26460.0,45.1
26520.0,44.1
26580.0,42.4
26640.0,41.9
26700.0,41.8
26760.0,42.9
26820.0,42.2
26880.0,43.6
26940.0,43.9
27000.0,45.8
27060.0,42.4
27120.0,41.2
27180.0,40.8
27240.0,40.0
27300.0,39.0
27360.0,40.4
27420.0,39.0
27480.0,40.7
27540.0,38.5
27600.0,38.3
27660.0,38.9
27720.0,37.4
27780.0,37.8
27840.0,38.6
27900.0,39.7
27960.0,40.8
28020.0,40.5
28080.0,39.9
28140.0,39.4
28200.0,36.2
28260.0,39.3
28320.0,36.9
28380.0,42.0
28440.0,39.1
28500.0,41.6
28560.0,39.5
28620.0,37.8
28680.0,36.7
28740.0,36.2
28800.0,35.5
28860.0,38.4
28920.0,40.8
28980.0,36.5
29040.0,40.7
29100.0,46.7
29160.0,43.1
29220.0,43.7
29280.0,46.7
29340.0,46.7
29400.0,47.5
29460.0,48.2
29520.0,50.5
29580.0,48.7
29640.0,52.7
29700.0,51.3
29760.0,49.4
29820.0,50.1
29880.0,53.2
29940.0,55.2
30000.0,55.4
30060.0,55.7
30120.0,56.7
30180.0,57.7
30240.0,57.2
30300.0,59.0
30360.0,59.3
30420.0,59.0
30480.0,60.2
30540.0,58.3
30600.0,57.9
30660.0,58.3
30720.0,57.6
30780.0,58.3
30840.0,59.0
30900.0,58.0
30960.0,59.2
31020.0,58.9
31080.0,58.1
31140.0,56.9
31200.0,57.2
31260.0,57.3
31320.0,58.0
31380.0,59.4
31440.0,58.3
31500.0,58.1
31560.0,57.4
31620.0,55.9
31680.0,55.9
31740.0,56.3
31800.0,57.5
31860.0,58.8
31920.0,59.0
31980.0,58.8
32040.0,57.1
32100.0,56.5
32160.0,57.3
32220.0,56.9
32280.0,58.0
32340.0,59.8
32400.0,56.6
32460.0,56.2
32520.0,55.5
32580.0,56.2
32640.0,57.0
32700.0,57.9
32760.0,56.3
32820.0,55.9
32880.0,55.8
32940.0,54.3
33000.0,54.2
33060.0,51.3
33120.0,52.9
33180.0,56.0
33240.0,57.4
33300.0,54.9
33360.0,56.7
33420.0,56.8
33480.0,57.9
33540.0,56.0
33600.0,55.1
33660.0,48.7
33720.0,46.7
33780.0,47.6
33840.0,46.0
33900.0,48.4
33960.0,45.5
34020.0,48.0
34080.0,48.8
34140.0,45.9
34200.0,48.9
34260.0,50.8
34320.0,51.0
34380.0,53.7
34440.0,53.6
34500.0,54.8
34560.0,52.8
34620.0,54.0
34680.0,51.7
34740.0,52.6
34800.0,50.9
34860.0,52.1
34920.0,53.2
34980.0,52.1
35040.0,52.3
35100.0,52.2
35160.0,54.0
35220.0,53.7
35280.0,54.8
35340.0,57.9
35400.0,55.3
35460.0,56.4
35520.0,57.5
35580.0,57.2
35640.0,55.2
35700.0,56.4
35760.0,57.1
35820.0,56.0
35880.0,54.8
35940.0,54.1
36000.0,54.1
36060.0,53.7
36120.0,55.2
36180.0,55.0
36240.0,54.7
36300.0,55.4
36360.0,53.6
36420.0,53.3
36480.0,53.4
36540.0,54.6
36600.0,54.3
36660.0,54.2
36720.0,53.2
36780.0,53.3
36840.0,55.1
36900.0,54.4
36960.0,55.0
37020.0,55.7
37080.0,56.1
37140.0,55.7
37200.0,56.6
37260.0,56.1
37320.0,55.7
37380.0,56.0
37440.0,56.2
37500.0,55.2
37560.0,55.5
37620.0,55.4
37680.0,55.1
37740.0,53.1
37800.0,54.3
37860.0,52.8
37920.0,52.8
37980.0,55.2
38040.0,52.4
38100.0,50.0
38160.0,52.2
38220.0,53.3
38280.0,51.7
38340.0,54.4
38400.0,54.2
38460.0,50.7
38520.0,51.1
38580.0,47.2
38640.0,48.3
38700.0,47.0
38760.0,48.4
38820.0,48.1
38880.0,47.2
38940.0,50.1
39000.0,48.0
39060.0,48.5
39120.0,49.6
39180.0,48.3
39240.0,49.1
39300.0,48.3
39360.0,48.4
39420.0,49.5
39480.0,49.2
39540.0,44.1
39600.0,48.6
39660.0,46.0
39720.0,48.6
39780.0,49.7
39840.0,49.2
39900.0,51.0
39960.0,48.9
40020.0,43.9
40080.0,45.8
40140.0,45.5
40200.0,48.8
40260.0,51.1
40320.0,45.2
40380.0,45.5
40440.0,48.3
40500.0,49.7
40560.0,50.5
40620.0,48.4
40680.0,42.9
40740.0,47.4
40800.0,46.5
40860.0,46.9
40920.0,46.6
40980.0,45.7
41040.0,46.7
41100.0,42.5
41160.0,42.2
41220.0,32.1
41280.0,37.0
41340.0,42.5
41400.0,46.3
41460.0,47.8
41520.0,46.1
41580.0,50.4
41640.0,44.5
41700.0,42.0
41760.0,38.8
41820.0,37.9
41880.0,41.9
41940.0,44.6
42000.0,42.7
42060.0,42.6
42120.0,38.8
42180.0,41.2
42240.0,37.6
42300.0,44.3
42360.0,37.1
42420.0,35.6
42480.0,37.5
42540.0,40.7
42600.0,43.5
42660.0,42.0
42720.0,38.2
42780.0,45.9
42840.0,44.3
42900.0,44.6
42960.0,41.8
43020.0,41.3
43080.0,43.1
43140.0,43.3
43200.0,46.4
43260.0,46.3
43320.0,30.7
43380.0,39.9
43440.0,44.1
43500.0,36.4
43560.0,39.9
43620.0,42.9
43680.0,38.4
43740.0,30.6
43800.0,39.8
43860.0,40.1
43920.0,49.1
43980.0,51.4
44040.0,50.4
44100.0,51.6
44160.0,46.4
44220.0,41.0
44280.0,42.4
44340.0,44.5
44400.0,43.4
44460.0,41.8
44520.0,40.4
44580.0,42.9
44640.0,47.5
44700.0,49.9
44760.0,46.7
44820.0,39.3
44880.0,48.3
44940.0,48.5
45000.0,46.4
45060.0,47.7
45120.0,47.6
45180.0,48.0
45240.0,50.7
45300.0,50.2
45360.0,47.8
45420.0,48.1
45480.0,45.2
45540.0,45.0
45600.0,47.3
45660.0,46.1
45720.0,41.4
45780.0,34.9
45840.0,39.9
45900.0,48.0
45960.0,50.9
46020.0,46.4
46080.0,48.0
46140.0,47.9
46200.0,49.0
46260.0,48.7
46320.0,48.4
46380.0,46.6
46440.0,48.5
46500.0,49.6
46560.0,52.4
46620.0,52.4
46680.0,49.9
46740.0,49.2
46800.0,46.7
46860.0,48.4
46920.0,46.9
46980.0,49.3
47040.0,49.5
47100.0,47.0
47160.0,44.5
47220.0,45.0
47280.0,42.5
47340.0,44.1
47400.0,47.1
47460.0,45.0
47520.0,45.8
47580.0,43.4
47640.0,47.6
47700.0,47.7
47760.0,47.8
47820.0,45.1
47880.0,41.9
47940.0,46.5
48000.0,46.4
48060.0,44.6
48120.0,44.2
48180.0,43.1
48240.0,46.0
48300.0,47.8
48360.0,46.9
48420.0,47.3
48480.0,47.8
48540.0,47.4
48600.0,48.0
48660.0,46.1
48720.0,47.3
48780.0,48.6
48840.0,48.7
48900.0,45.6
48960.0,47.1
49020.0,46.2
49080.0,48.6
49140.0,46.8
49200.0,38.5
49260.0,37.6
49320.0,34.5
49380.0,45.5
49440.0,45.5
49500.0,43.5
49560.0,43.7
49620.0,36.4
49680.0,40.4
49740.0,39.8
49800.0,40.5
49860.0,39.4
49920.0,39.1
49980.0,42.7
50040.0,43.1
50100.0,42.1
50160.0,45.4
50220.0,44.4
50280.0,43.5
50340.0,44.1
50400.0,46.2
50460.0,45.4
50520.0,44.0
50580.0,47.4
50640.0,47.8
50700.0,47.5
50760.0,46.6
50820.0,45.7
50880.0,45.6
50940.0,46.2
51000.0,47.3
51060.0,44.2
51120.0,42.8
51180.0,41.0
51240.0,39.8
51300.0,42.9
51360.0,40.7
51420.0,43.4
51480.0,45.1
51540.0,44.9
51600.0,43.9
51660.0,45.6
51720.0,43.1
51780.0,43.6
51840.0,43.3
51900.0,43.7
51960.0,45.3
52020.0,45.7
52080.0,45.1
52140.0,44.0
52200.0,43.4
52260.0,44.4
52320.0,46.3
52380.0,45.7
52440.0,45.4
52500.0,43.6
52560.0,43.2
52620.0,42.9
52680.0,40.1
52740.0,40.3
52800.0,39.1
52860.0,42.0
52920.0,42.2
52980.0,40.9
53040.0,41.7
53100.0,39.1
53160.0,39.8
53220.0,39.8
53280.0,40.2
53340.0,39.0
53400.0,39.5
53460.0,39.3
53520.0,37.2
53580.0,36.3
53640.0,34.4
53700.0,34.6
53760.0,35.3
53820.0,35.3
53880.0,34.0
53940.0,33.7
54000.0,33.6
54060.0,33.2
54120.0,33.8
54180.0,32.5
54240.0,32.5
54300.0,31.4
54360.0,31.4
54420.0,33.9
54480.0,32.2
54540.0,31.0
54600.0,31.3
54660.0,28.3
54720.0,28.0
54780.0,30.0
54840.0,31.2
54900.0,33.6
54960.0,34.9
55020.0,37.4
55080.0,39.6
55140.0,38.2
55200.0,38.1
55260.0,41.8
55320.0,39.9
55380.0,38.9
55440.0,41.7
55500.0,41.9
55560.0,39.9
55620.0,41.2
55680.0,41.9
55740.0,40.6
55800.0,40.3
55860.0,40.8
55920.0,39.5
55980.0,42.4
56040.0,41.8
56100.0,41.0
56160.0,40.3
56220.0,43.0
56280.0,40.7
56340.0,43.5
56400.0,38.5
56460.0,40.6
56520.0,42.7
56580.0,41.5
56640.0,41.9
56700.0,40.4
56760.0,43.8
56820.0,43.9
56880.0,44.0
56940.0,43.3
57000.0,45.2
57060.0,45.3
57120.0,44.4
57180.0,43.0
57240.0,44.5
57300.0,44.1
57360.0,44.4
57420.0,44.1
57480.0,41.7
57540.0,44.5
57600.0,44.9
57660.0,41.7
57720.0,45.8
57780.0,46.3
57840.0,50.2
57900.0,48.4
57960.0,48.7
58020.0,49.6
58080.0,49.6
58140.0,51.8
58200.0,51.3
58260.0,51.0
58320.0,51.5
58380.0,50.6
58440.0,48.9
58500.0,51.1
58560.0,48.8
58620.0,51.0
58680.0,51.7
58740.0,50.4
58800.0,50.8
58860.0,51.7
58920.0,51.2
58980.0,50.3
59040.0,50.1
59100.0,50.3
59160.0,50.2
59220.0,50.8
59280.0,50.7
59340.0,50.7
59400.0,51.6
59460.0,51.7
59520.0,52.0
59580.0,50.0
59640.0,49.6
59700.0,50.0
59760.0,51.7
59820.0,51.0
59880.0,50.2
59940.0,51.8
60000.0,49.9
60060.0,49.4
60120.0,51.3
60180.0,51.1
60240.0,50.9
60300.0,50.3
60360.0,51.5
60420.0,52.2
60480.0,51.9
60540.0,50.9
60600.0,51.7
60660.0,51.7
60720.0,52.5
60780.0,52.7
60840.0,51.0
60900.0,51.4
60960.0,52.5
61020.0,52.0
61080.0,52.4
61140.0,53.2
61200.0,52.0
61260.0,52.1
61320.0,51.3
61380.0,51.0
61440.0,53.3
61500.0,53.2
61560.0,52.6
61620.0,52.3
61680.0,53.3
61740.0,53.3
61800.0,53.0
61860.0,52.5
61920.0,52.6
61980.0,51.3
62040.0,52.2
62100.0,53.5
62160.0,51.8
62220.0,51.9
62280.0,53.8
62340.0,53.4
62400.0,54.1
62460.0,53.5
62520.0,53.3
62580.0,54.0
62640.0,54.6
62700.0,54.4
62760.0,53.2
62820.0,53.6
62880.0,51.7
62940.0,50.7
63000.0,53.4
63060.0,55.0
63120.0,54.1
63180.0,54.8
63240.0,54.2
63300.0,54.2
63360.0,54.3
63420.0,53.2
63480.0,53.8
63540.0,54.4
63600.0,54.6
63660.0,53.8
63720.0,52.8
63780.0,55.0
63840.0,54.1
63900.0,53.4
63960.0,52.5
64020.0,53.3
64080.0,54.0
64140.0,53.8
64200.0,53.6
64260.0,54.7
64320.0,53.9
64380.0,53.8
64440.0,55.1
64500.0,54.9
64560.0,54.8
64620.0,54.9
64680.0,53.0
64740.0,55.3
64800.0,53.4
64860.0,55.6
64920.0,55.5
64980.0,54.1
65040.0,55.1
65100.0,55.3
65160.0,55.3
65220.0,54.3
65280.0,55.0
65340.0,55.5
65400.0,55.5
65460.0,54.9
65520.0,55.3
65580.0,55.4
65640.0,54.2
65700.0,54.6
65760.0,55.8
65820.0,56.3
65880.0,55.9
65940.0,56.2
66000.0,57.0
66060.0,56.7
66120.0,55.6
66180.0,57.1
66240.0,57.2
66300.0,55.4
66360.0,56.8
66420.0,56.9
66480.0,56.0
66540.0,57.2
66600.0,57.9
66660.0,57.1
66720.0,58.4
66780.0,57.3
66840.0,58.0
66900.0,57.0
66960.0,57.0
67020.0,57.5
67080.0,57.7
67140.0,58.7
67200.0,57.5
67260.0,57.9
67320.0,58.3
67380.0,60.4
67440.0,58.2
67500.0,56.1
67560.0,59.1
67620.0,59.4
67680.0,59.9
67740.0,58.7
67800.0,58.4
67860.0,57.7
67920.0,59.6
67980.0,60.1
68040.0,59.2
68100.0,59.9
68160.0,57.8
68220.0,58.3
68280.0,57.2
68340.0,58.1
68400.0,57.4
68460.0,57.6
68520.0,58.2
68580.0,56.7
68640.0,56.5
68700.0,59.8
68760.0,60.0
68820.0,60.1
68880.0,60.8
68940.0,59.1
69000.0,58.4
69060.0,59.8
69120.0,60.0
69180.0,60.8
69240.0,59.3
69300.0,59.7
69360.0,59.3
69420.0,60.2
69480.0,60.7
69540.0,59.6
69600.0,59.3
69660.0,57.9
69720.0,60.2
69780.0,61.0
69840.0,60.8
69900.0,59.8
69960.0,60.0
70020.0,59.7
70080.0,60.6
70140.0,62.5
70200.0,60.4
70260.0,59.6
70320.0,60.3
70380.0,59.0
70440.0,61.2
70500.0,59.8
70560.0,59.1
70620.0,60.9
70680.0,60.0
70740.0,60.0
70800.0,58.8
70860.0,60.2
70920.0,60.4
70980.0,60.8
71040.0,61.5
71100.0,61.4
71160.0,59.3
71220.0,59.8
71280.0,60.5
71340.0,59.9
71400.0,59.7
71460.0,60.1
71520.0,61.2
71580.0,60.1
71640.0,60.3
71700.0,62.0
71760.0,59.6
71820.0,60.0
71880.0,61.1
71940.0,62.9
72000.0,61.1
72060.0,60.4
72120.0,61.0
72180.0,62.4
72240.0,61.9
72300.0,60.4
72360.0,59.4
72420.0,59.0
72480.0,60.8
72540.0,60.0
72600.0,60.8
72660.0,60.1
72720.0,60.4
72780.0,59.8
72840.0,61.5
72900.0,60.7
72960.0,58.9
73020.0,60.1
73080.0,61.2
73140.0,60.5
73200.0,60.7
73260.0,60.7
73320.0,57.6
73380.0,61.1
73440.0,60.5
73500.0,60.6
73560.0,60.6
73620.0,60.7
73680.0,60.0
73740.0,60.0
73800.0,60.0
73860.0,58.3
73920.0,58.2
73980.0,61.1
74040.0,60.7
74100.0,60.1
74160.0,58.3
74220.0,59.4
74280.0,59.2
74340.0,61.1
74400.0,63.1
74460.0,60.5
74520.0,59.2
74580.0,60.6
74640.0,61.9
74700.0,62.3
74760.0,62.0
74820.0,60.4
74880.0,59.3
74940.0,61.3
75000.0,60.4
75060.0,60.4
75120.0,61.4
75180.0,61.2
75240.0,61.4
75300.0,62.7
75360.0,59.7
75420.0,59.3
75480.0,61.8
75540.0,59.8
75600.0,60.8
75660.0,61.3
75720.0,61.8
75780.0,62.1
75840.0,61.8
75900.0,60.2
75960.0,60.2
76020.0,60.8
76080.0,60.9
76140.0,62.2
76200.0,59.9
76260.0,59.9
76320.0,60.3
76380.0,61.2
76440.0,61.2
76500.0,60.8
76560.0,60.1
76620.0,59.9
76680.0,61.5
76740.0,60.2
76800.0,59.6
76860.0,61.8
76920.0,59.1
76980.0,60.5
77040.0,59.1
77100.0,57.9
77160.0,59.6
77220.0,61.0
77280.0,60.4
77340.0,62.0
77400.0,62.3
77460.0,61.3
77520.0,61.8
77580.0,62.5
77640.0,61.3
77700.0,62.2
77760.0,60.3
77820.0,60.9
77880.0,59.9
77940.0,58.0
78000.0,59.5
78060.0,62.2
78120.0,62.5
78180.0,62.0
78240.0,63.1
78300.0,63.1
78360.0,63.1
78420.0,61.8
78480.0,63.4
78540.0,62.5
78600.0,63.1
78660.0,64.2
78720.0,65.4
78780.0,63.9
78840.0,64.2
78900.0,63.7
78960.0,64.0
79020.0,65.0
79080.0,66.8
79140.0,67.0
79200.0,65.2
79260.0,66.7
79320.0,67.8
79380.0,67.4
79440.0,66.2
79500.0,64.7
79560.0,63.6
79620.0,64.4
79680.0,65.1
79740.0,64.2
79800.0,65.5
79860.0,65.7
79920.0,64.5
79980.0,64.3
80040.0,62.9
80100.0,62.0
80160.0,60.8
80220.0,62.5
80280.0,63.5
80340.0,63.9
80400.0,62.9
80460.0,62.3
80520.0,62.3
80580.0,62.2
80640.0,60.3
80700.0,62.7
80760.0,64.6
80820.0,66.1
80880.0,67.5
80940.0,67.5
81000.0,66.8
81060.0,67.2
81120.0,67.3
81180.0,65.7
81240.0,65.9
81300.0,65.3
81360.0,66.5
81420.0,65.4
81480.0,64.6
81540.0,66.6
81600.0,66.9
81660.0,67.6
81720.0,67.5
81780.0,66.9
81840.0,67.1
81900.0,67.5
81960.0,68.3
82020.0,68.9
82080.0,69.2
82140.0,68.5
82200.0,66.9
82260.0,65.6
82320.0,65.2
82380.0,65.6
82440.0,65.4
82500.0,65.1
82560.0,66.1
82620.0,64.8
82680.0,65.9
82740.0,65.6
82800.0,65.6
82860.0,64.5
82920.0,65.7
82980.0,65.2
83040.0,65.6
83100.0,64.4
83160.0,64.6
83220.0,64.9
83280.0,64.2
83340.0,65.7
83400.0,65.1
83460.0,65.2
83520.0,64.5
83580.0,63.2
83640.0,62.9
83700.0,63.4
83760.0,64.4
83820.0,63.0
83880.0,64.9
83940.0,64.3
84000.0,64.7
84060.0,65.4
84120.0,62.8
84180.0,62.0
84240.0,63.0
84300.0,65.0
84360.0,62.2
84420.0,63.1
84480.0,64.5
84540.0,64.1
84600.0,61.3
84660.0,59.4
84720.0,60.1
84780.0,61.8
84840.0,61.6
84900.0,62.9
84960.0,64.0
85020.0,64.9
85080.0,64.3
85140.0,63.3
85200.0,60.4
85260.0,56.2
85320.0,58.2
85380.0,62.7
85440.0,63.4
85500.0,63.4
85560.0,64.5
85620.0,62.2
85680.0,60.6
85740.0,61.6
85800.0,62.1
85860.0,62.1
85920.0,60.9
85980.0,63.6
86040.0,62.3
86100.0,62.1
86160.0,60.3
86220.0,60.2
86280.0,61.7
86340.0,61.6
