34, 1001
Michael A Robinson, Chris Jernigan, Subi Thakali
NOAA ESRL Chemical Sciences Laboratory and CIRES, U. of Colorado
NOAA Iodide CIMS Instrument
USOS
1, 1
2024, 07, 17, 2024, 07, 18
0
starttime_UTC, seconds_past_midnight, seconds_of_day_since_00:00:00_UTC
1
1
-9999
HNO2_NOAACIMS, pptv, Gas_HNO2_InSitu_S_AVMR
1
N/A
18
PI_CONTACT_INFO: 325 Broadway, R/CSD 7, Boulder, Colorado 80305; michael.a.robinson@noaa.gov; chris.jernigan@noaa.gov;
PLATFORM: NOAA CSL Mobile Lab
LOCATION: SLC, Utah
ASSOCIATED_DATA: 1Hz data also available on request.
INSTRUMENT_INFO: NOAA I- ToF CIMS
DATA_INFO: Units: pptv
UNCERTAINTY: tbd
ULOD_FLAG: -7777
ULOD_VALUE: N/A
LLOD_FLAG: -8888
LLOD_VALUE: N/A
DM_CONTACT_INFO: Nathan Howard; nathan.h.howard@noaa.gov
PROJECT_INFO: USOS, summer 2024. https://csl.noaa.gov/groups/csl7/measurements/2024usos/
STIPULATIONS_ON_USE: only the USOS science team is allowed to use this data
OTHER_COMMENTS: Field data; Data are averaged to 1 minute intervals. Stationary data collected from a 10 ft tower on top of the mobile lab
REVISION: RA
RA: Preliminary Data; For in-field use only
starttime_UTC, HNO2_NOAACIMS
0,-9999.000
60,2.449
120,5.258
180,5.474
240,3.507
300,1.079
360,-0.632
420,0.021
480,1.210
540,5.429
600,10.646
660,11.386
720,9.670
780,11.886
840,17.941
900,27.975
960,24.543
1020,12.582
1080,9.452
1140,12.372
1200,8.181
1260,5.887
1320,5.337
1380,5.216
1440,2.830
1500,5.184
1560,3.065
1620,5.114
1680,1.810
1740,3.551
1800,3.655
1860,2.255
1920,3.373
1980,7.212
2040,2.517
2100,1.334
2160,6.219
2220,9.790
2280,8.880
2340,7.196
2400,0.538
2460,0.039
2520,1.053
2580,0.729
2640,-0.512
2700,0.875
2760,0.297
2820,4.565
2880,7.221
2940,19.426
3000,6.811
3060,9.763
3120,4.936
3180,1.930
3240,2.125
3300,4.576
3360,0.211
3420,3.284
3480,0.675
3540,1.525
3600,0.091
3660,3.544
3720,6.870
3780,10.702
3840,10.023
3900,11.723
3960,11.168
4020,14.736
4080,9.521
4140,13.209
4200,7.991
4260,11.333
4320,11.813
4380,12.414
4440,10.509
4500,8.396
4560,0.990
4620,1.293
4680,0.693
4740,4.791
4800,10.974
4860,10.040
4920,8.759
4980,26.317
5040,14.466
5100,23.457
5160,6.626
5220,24.043
5280,24.764
5340,11.176
5400,42.308
5460,113.958
5520,76.276
5580,47.122
5640,52.800
5700,55.654
5760,79.200
5820,65.349
5880,65.412
5940,85.310
6000,90.165
6060,75.312
6120,76.955
6180,81.527
6240,31.396
6300,9.932
6360,16.612
6420,70.506
6480,52.803
6540,23.083
6600,37.641
6660,26.507
6720,14.327
6780,34.716
6840,6.339
6900,8.198
6960,22.694
7020,61.163
7080,14.657
7140,45.525
7200,18.649
7260,21.571
7320,76.631
7380,76.033
7440,124.689
7500,36.571
7560,43.698
7620,97.684
7680,75.770
7740,114.594
7800,51.729
7860,77.035
7920,125.986
7980,97.974
8040,65.665
8100,112.198
8160,89.989
8220,49.409
8280,11.047
8340,35.463
8400,49.131
8460,52.948
8520,153.279
8580,133.082
8640,77.306
8700,65.988
8760,66.461
8820,90.933
8880,132.477
8940,179.009
9000,105.868
9060,131.707
9120,108.743
9180,45.939
9240,34.622
9300,65.594
9360,82.087
9420,60.908
9480,60.615
9540,71.728
9600,105.574
9660,75.419
9720,42.569
9780,68.847
9840,63.972
9900,59.043
9960,74.669
10020,71.264
10080,61.581
10140,67.821
10200,51.699
10260,65.965
10320,59.269
10380,51.854
10440,36.646
10500,40.638
10560,30.767
10620,42.647
10680,45.428
10740,43.409
10800,32.725
10860,38.505
10920,35.527
10980,50.691
11040,35.887
11100,44.324
11160,38.898
11220,36.817
11280,38.343
11340,38.540
11400,29.494
11460,43.400
11520,22.306
11580,41.937
11640,33.341
11700,27.155
11760,23.478
11820,34.335
11880,31.365
11940,33.141
12000,35.231
12060,32.573
12120,30.648
12180,39.040
12240,35.233
12300,30.048
12360,37.282
12420,21.005
12480,25.842
12540,18.802
12600,23.250
12660,31.143
12720,38.614
12780,19.647
12840,23.427
12900,26.118
12960,29.351
13020,21.314
13080,24.327
13140,22.097
13200,17.139
13260,29.539
13320,41.946
13380,46.706
13440,45.892
13500,65.770
13560,49.077
13620,27.429
13680,49.287
13740,45.355
13800,55.828
13860,72.004
13920,54.212
13980,41.232
14040,38.584
14100,52.608
14160,50.121
14220,36.204
14280,31.236
14340,39.305
14400,76.626
14460,30.566
14520,27.916
14580,39.807
14640,24.928
14700,42.391
14760,38.658
14820,21.914
14880,31.682
14940,16.814
15000,25.680
15060,19.129
15120,2.788
15180,30.669
15240,26.011
15300,9.148
15360,6.826
15420,14.241
15480,13.750
15540,7.006
15600,9.355
15660,19.263
15720,33.573
15780,-4.421
15840,19.152
15900,12.123
15960,6.261
16020,18.294
16080,24.101
16140,9.856
16200,21.189
16260,7.877
16320,11.614
16380,20.567
16440,11.757
16500,20.365
16560,12.449
16620,2.849
16680,13.430
16740,13.847
16800,7.331
16860,18.328
16920,28.139
16980,1.292
17040,8.441
17100,12.026
17160,5.266
17220,14.356
17280,10.213
17340,18.900
17400,10.714
17460,9.389
17520,9.140
17580,11.054
17640,8.726
17700,20.319
17760,26.583
17820,3.775
17880,11.230
17940,13.500
18000,8.362
18060,16.471
18120,11.962
18180,-4.301
18240,10.504
18300,4.441
18360,7.649
18420,14.629
18480,-9999.000
18540,7.391
18600,17.095
18660,2.093
18720,9.099
18780,3.946
18840,-5.308
18900,16.684
18960,3.826
19020,15.627
19080,19.942
19140,0.929
19200,5.126
19260,14.182
19320,10.771
19380,24.203
19440,25.389
19500,-1.800
19560,9.765
19620,18.916
19680,10.595
19740,22.267
19800,25.173
19860,12.303
19920,15.132
19980,14.573
20040,4.241
20100,15.294
20160,16.558
20220,5.631
20280,13.086
20340,-3.674
20400,0.702
20460,13.171
20520,22.277
20580,15.312
20640,6.407
20700,11.422
20760,12.703
20820,17.669
20880,13.748
20940,11.246
21000,23.922
21060,23.682
21120,61.360
21180,25.530
21240,23.018
21300,17.011
21360,23.502
21420,8.846
21480,10.706
21540,19.630
21600,20.559
21660,6.898
21720,18.149
21780,-1.549
21840,6.767
21900,2.170
21960,-4.557
22020,10.364
22080,-3.347
22140,2.915
22200,-6.218
22260,4.469
22320,-1.175
22380,14.652
22440,14.791
22500,-2.671
22560,11.526
22620,1.119
22680,-0.649
22740,14.249
22800,10.757
22860,1.586
22920,5.763
22980,-6.197
23040,-1.816
23100,7.781
23160,4.010
23220,1.453
23280,6.860
23340,-6.156
23400,0.265
23460,2.107
23520,0.402
23580,1.787
23640,1.708
23700,1.197
23760,-4.141
23820,9.759
23880,6.939
23940,6.540
24000,7.697
24060,-7.745
24120,-1.830
24180,5.333
24240,-4.798
24300,-4.053
24360,-16.486
24420,-3.423
24480,0.558
24540,6.041
24600,-1.604
24660,9.064
24720,2.934
24780,7.588
24840,6.415
24900,2.133
24960,9.530
25020,5.502
25080,-1.906
25140,9.500
25200,7.667
25260,2.689
25320,6.588
25380,9.301
25440,15.140
25500,29.165
25560,22.803
25620,8.568
25680,-1.456
25740,11.819
25800,5.211
25860,8.411
25920,9.244
25980,3.835
26040,3.641
26100,1.879
26160,6.858
26220,12.872
26280,0.873
26340,3.181
26400,11.755
26460,10.694
26520,12.828
26580,1.359
26640,4.507
26700,8.549
26760,6.278
26820,16.471
26880,10.860
26940,9.733
27000,9.505
27060,9.407
27120,10.985
27180,21.611
27240,18.413
27300,14.688
27360,17.627
27420,15.091
27480,9.961
27540,13.075
27600,8.603
27660,9.783
27720,18.597
27780,13.706
27840,5.752
27900,16.709
27960,10.371
28020,13.076
28080,12.162
28140,16.763
28200,25.374
28260,12.570
28320,39.633
28380,66.450
28440,66.099
28500,73.000
28560,87.307
28620,72.366
28680,76.905
28740,80.377
28800,67.330
28860,82.191
28920,94.372
28980,75.639
29040,88.426
29100,91.715
29160,89.547
29220,92.914
29280,92.474
29340,76.682
29400,64.725
29460,51.612
29520,49.695
29580,52.220
29640,69.696
29700,52.371
29760,69.207
29820,68.551
29880,40.888
29940,33.163
30000,55.991
30060,50.977
30120,71.449
30180,55.669
30240,47.945
30300,34.478
30360,34.603
30420,16.115
30480,18.937
30540,24.924
30600,25.838
30660,20.073
30720,22.112
30780,9.646
30840,9.087
30900,19.553
30960,9.979
31020,24.311
31080,24.585
31140,7.175
31200,9.136
31260,20.045
31320,12.723
31380,25.100
31440,20.424
31500,8.805
31560,14.887
31620,12.170
31680,10.469
31740,21.719
31800,14.946
31860,20.880
31920,23.916
31980,10.469
32040,20.897
32100,15.175
32160,11.323
32220,20.131
32280,23.415
32340,14.155
32400,15.012
32460,22.176
32520,11.741
32580,25.786
32640,20.951
32700,20.845
32760,22.119
32820,17.411
32880,19.356
32940,20.310
33000,15.214
33060,22.616
33120,30.448
33180,8.548
33240,14.191
33300,20.393
33360,13.710
33420,24.534
33480,29.276
33540,18.972
33600,15.051
33660,26.458
33720,17.880
33780,23.452
33840,26.758
33900,22.913
33960,28.679
34020,18.388
34080,17.831
34140,28.058
34200,20.151
34260,30.587
34320,32.993
34380,18.010
34440,19.559
34500,27.023
34560,15.115
34620,34.573
34680,42.017
34740,16.865
34800,27.527
34860,29.088
34920,28.100
34980,33.510
35040,39.248
35100,25.526
35160,25.948
35220,31.587
35280,31.243
35340,34.479
35400,35.221
35460,32.700
35520,32.004
35580,24.404
35640,31.650
35700,33.715
35760,31.667
35820,28.278
35880,32.419
35940,29.427
36000,25.880
36060,32.619
36120,35.996
36180,28.970
36240,33.989
36300,23.480
36360,22.052
36420,35.556
36480,34.837
36540,26.224
36600,27.049
36660,25.925
36720,20.065
36780,25.363
36840,36.882
36900,20.374
36960,-9999.000
37020,25.737
37080,29.997
37140,25.857
37200,31.091
37260,25.001
37320,20.770
37380,27.696
37440,20.714
37500,35.355
37560,33.627
37620,20.860
37680,22.118
37740,27.859
37800,21.518
37860,34.189
37920,35.635
37980,22.351
38040,18.706
38100,27.717
38160,29.764
38220,27.377
38280,35.485
38340,23.203
38400,25.017
38460,25.048
38520,23.303
38580,32.555
38640,35.045
38700,26.265
38760,27.762
38820,23.216
38880,28.566
38940,31.013
39000,28.009
39060,26.252
39120,25.127
39180,34.632
39240,28.436
39300,34.268
39360,29.232
39420,24.166
39480,17.715
39540,28.447
39600,28.398
39660,21.468
39720,28.224
39780,12.612
39840,24.948
39900,24.096
39960,21.004
40020,30.640
40080,30.356
40140,18.154
40200,14.032
40260,22.662
40320,25.047
40380,20.340
40440,25.427
40500,10.802
40560,9.732
40620,16.000
40680,11.290
40740,17.896
40800,12.255
40860,19.490
40920,9.921
40980,26.961
41040,22.712
41100,16.477
41160,14.992
41220,14.180
41280,15.606
41340,22.845
41400,27.678
41460,13.284
41520,14.356
41580,17.849
41640,18.697
41700,22.633
41760,26.481
41820,12.412
41880,8.393
41940,25.939
42000,19.567
42060,36.412
42120,30.250
42180,25.308
42240,14.339
42300,26.811
42360,29.745
42420,12.772
42480,18.791
42540,11.979
42600,17.269
42660,26.260
42720,24.193
42780,12.572
42840,10.472
42900,17.477
42960,24.869
43020,18.211
43080,18.439
43140,22.701
43200,13.052
43260,21.027
43320,24.490
43380,14.029
43440,12.041
43500,16.500
43560,23.200
43620,16.636
43680,16.676
43740,14.933
43800,18.098
43860,18.964
43920,23.911
43980,20.896
44040,15.664
44100,23.263
44160,22.347
44220,20.702
44280,21.678
44340,34.107
44400,18.139
44460,31.190
44520,28.619
44580,25.025
44640,21.251
44700,16.844
44760,14.244
44820,14.173
44880,25.678
44940,22.520
45000,26.208
45060,18.633
45120,16.691
45180,24.681
45240,25.490
45300,24.921
45360,18.243
45420,19.120
45480,30.376
45540,29.380
45600,34.609
45660,25.227
45720,22.293
45780,22.303
45840,28.216
45900,41.287
45960,32.464
46020,29.305
46080,26.729
46140,35.109
46200,18.084
46260,25.369
46320,17.547
46380,33.420
46440,44.873
46500,30.961
46560,25.141
46620,25.011
46680,30.257
46740,33.741
46800,61.783
46860,60.729
46920,40.671
46980,32.444
47040,47.989
47100,19.066
47160,29.149
47220,31.838
47280,33.757
47340,37.172
47400,33.839
47460,21.271
47520,25.471
47580,35.127
47640,29.859
47700,26.889
47760,37.186
47820,21.377
47880,21.338
47940,32.258
48000,33.607
48060,24.360
48120,-9999.000
48180,16.345
48240,13.073
48300,32.022
48360,31.528
48420,29.119
48480,17.036
48540,21.576
48600,28.004
48660,20.821
48720,24.076
48780,20.357
48840,12.905
48900,21.726
48960,27.230
49020,17.077
49080,26.017
49140,15.213
49200,21.029
49260,32.944
49320,35.416
49380,25.076
49440,34.223
49500,30.268
49560,22.964
49620,22.166
49680,25.199
49740,20.566
49800,20.388
49860,34.293
49920,34.245
49980,23.569
50040,24.863
50100,26.175
50160,36.721
50220,46.511
50280,32.340
50340,23.082
50400,33.976
50460,26.464
50520,21.708
50580,17.613
50640,16.339
50700,18.558
50760,31.249
50820,19.470
50880,29.296
50940,23.940
51000,36.268
51060,27.311
51120,27.515
51180,30.381
51240,20.469
51300,22.297
51360,20.731
51420,28.100
51480,30.867
51540,20.231
51600,13.289
51660,12.031
51720,21.386
51780,19.360
51840,12.549
51900,21.880
51960,16.898
52020,11.415
52080,13.741
52140,17.190
52200,21.481
52260,17.741
52320,13.303
52380,12.923
52440,10.580
52500,13.966
52560,17.359
52620,13.873
52680,14.219
52740,13.769
52800,13.461
52860,13.341
52920,16.826
52980,22.999
53040,10.113
53100,12.000
53160,16.913
53220,10.973
53280,16.348
53340,15.990
53400,10.319
53460,19.695
53520,9.358
53580,26.648
53640,20.282
53700,23.267
53760,12.550
53820,10.640
53880,16.835
53940,14.509
54000,4.440
54060,12.312
54120,16.476
54180,13.555
54240,22.108
54300,19.537
54360,28.800
54420,11.196
54480,8.748
54540,19.964
54600,13.160
54660,6.903
54720,15.813
54780,19.761
54840,12.503
54900,13.606
54960,21.966
55020,18.638
55080,16.498
55140,16.897
55200,11.308
55260,21.581
55320,21.759
55380,29.408
55440,26.353
55500,19.028
55560,25.315
55620,21.821
55680,22.133
55740,27.490
55800,25.763
55860,22.145
55920,26.837
55980,19.309
56040,20.925
56100,33.587
56160,30.604
56220,16.352
56280,20.365
56340,31.675
56400,17.561
56460,20.580
56520,19.285
56580,19.141
56640,18.307
56700,16.679
56760,15.144
56820,15.573
56880,12.371
56940,10.900
57000,24.072
57060,24.959
57120,25.133
57180,18.889
57240,16.060
57300,14.083
57360,15.389
57420,16.005
57480,18.996
57540,13.197
57600,3.940
57660,0.173
57720,11.478
57780,0.409
57840,-0.878
57900,5.657
57960,22.299
58020,14.313
58080,9.836
58140,12.576
58200,12.745
58260,9.715
58320,9.590
58380,14.474
58440,13.666
58500,7.501
58560,11.007
58620,21.902
58680,10.549
58740,21.856
58800,19.546
58860,17.862
58920,1.879
58980,15.312
59040,14.594
59100,8.459
59160,17.440
59220,25.148
59280,13.427
59340,11.192
59400,7.564
59460,19.908
59520,2.388
59580,10.274
59640,10.387
59700,12.284
59760,16.024
59820,1.080
59880,5.759
59940,6.632
60000,9.027
60060,9.045
60120,9.545
60180,6.448
60240,4.473
60300,10.946
60360,0.662
60420,14.146
60480,12.717
60540,5.596
60600,17.594
60660,12.590
60720,5.492
60780,6.393
60840,-1.271
60900,4.925
60960,1.201
61020,6.190
61080,13.458
61140,14.235
61200,-0.110
61260,14.951
61320,1.370
61380,3.528
61440,8.902
61500,-1.891
61560,4.658
61620,1.148
61680,14.179
61740,-0.455
61800,0.905
61860,-0.396
61920,6.651
61980,11.832
62040,2.758
62100,-1.087
62160,5.203
62220,4.465
62280,4.983
62340,8.128
62400,17.694
62460,28.652
62520,8.004
62580,2.691
62640,-1.333
62700,10.331
62760,20.834
62820,35.459
62880,28.935
62940,0.765
63000,0.295
63060,5.595
63120,17.206
63180,8.168
63240,-5.526
63300,5.167
63360,-2.357
63420,2.701
63480,-2.127
63540,-2.174
63600,6.244
63660,10.381
63720,3.780
63780,11.856
63840,17.165
63900,18.634
63960,21.476
64020,25.356
64080,15.072
64140,90.353
64200,46.464
64260,41.573
64320,41.280
64380,47.171
64440,81.604
64500,121.837
64560,51.420
64620,11.052
64680,7.847
64740,17.772
64800,18.411
64860,23.395
64920,21.184
64980,2.275
65040,9.667
65100,12.659
65160,11.882
65220,9.120
65280,16.392
65340,7.159
65400,18.621
65460,18.703
65520,22.474
65580,26.329
65640,23.677
65700,19.280
65760,27.879
65820,16.371
65880,18.907
65940,15.563
66000,15.197
66060,25.132
66120,14.472
66180,19.083
66240,19.192
66300,26.241
66360,49.457
66420,48.140
66480,21.505
66540,15.262
66600,-9999.000
66660,15.435
66720,14.198
66780,26.662
66840,22.364
66900,35.907
66960,64.900
67020,25.109
67080,57.920
67140,34.640
67200,29.215
67260,19.193
67320,65.351
67380,16.365
67440,10.541
67500,13.475
67560,14.052
67620,8.266
67680,19.341
67740,7.881
67800,2.132
67860,2.674
67920,4.580
67980,10.616
68040,18.804
68100,8.176
68160,6.482
68220,6.284
68280,6.178
68340,10.386
68400,19.779
68460,11.667
68520,13.074
68580,33.564
68640,15.924
68700,15.078
68760,4.230
68820,9.693
68880,19.919
68940,30.251
69000,61.471
69060,48.098
69120,62.450
69180,76.578
69240,52.129
69300,26.334
69360,15.352
69420,42.144
69480,75.589
69540,4.655
69600,19.301
69660,7.645
69720,6.889
69780,11.234
69840,12.309
69900,3.159
69960,14.066
70020,27.290
70080,20.673
70140,22.079
70200,14.703
70260,8.567
70320,21.092
70380,24.033
70440,17.296
70500,33.095
70560,13.834
70620,14.992
70680,22.737
70740,33.173
70800,17.125
70860,17.588
70920,31.076
70980,25.543
71040,34.786
71100,32.137
71160,29.848
71220,44.618
71280,55.126
71340,55.215
71400,54.296
71460,39.937
71520,20.869
71580,30.120
71640,49.815
71700,38.111
71760,31.639
71820,29.803
71880,23.061
71940,21.996
72000,22.928
72060,34.866
72120,34.746
72180,44.464
72240,72.731
72300,71.347
72360,43.599
72420,23.830
72480,56.674
72540,40.430
72600,52.946
72660,35.826
72720,39.742
72780,27.521
72840,40.675
72900,29.221
72960,45.579
73020,20.237
73080,22.812
73140,29.183
73200,30.843
73260,30.683
73320,42.294
73380,28.957
73440,37.746
73500,44.439
73560,36.912
73620,33.641
73680,51.775
73740,34.140
73800,17.104
73860,30.283
73920,15.665
73980,26.110
74040,18.556
74100,41.734
74160,28.633
74220,5.606
74280,23.622
74340,24.845
74400,12.579
74460,13.084
74520,5.589
74580,9.539
74640,4.368
74700,7.304
74760,4.059
74820,2.837
74880,0.104
74940,2.243
75000,8.826
75060,16.742
75120,15.897
75180,31.698
75240,18.577
75300,21.926
75360,24.850
75420,32.098
75480,24.754
75540,13.665
75600,14.214
75660,26.073
75720,17.575
75780,2.937
75840,0.504
75900,1.703
75960,7.684
76020,-2.451
76080,8.448
76140,1.139
76200,-1.157
76260,1.556
76320,4.549
76380,2.672
76440,8.291
76500,73.943
76560,49.577
76620,15.539
76680,49.709
76740,23.088
76800,16.233
76860,4.200
76920,15.470
76980,4.007
77040,7.654
77100,12.351
77160,7.777
77220,5.058
77280,11.495
77340,11.764
77400,9.382
77460,4.755
77520,-1.375
77580,4.723
77640,0.678
77700,-4.935
77760,-2.438
77820,0.993
77880,-0.717
77940,-1.434
78000,4.752
78060,0.947
78120,-0.161
78180,12.268
78240,12.395
78300,2.576
78360,0.414
78420,2.951
78480,8.958
78540,8.069
78600,17.470
78660,9.035
78720,12.961
78780,5.177
78840,1.143
78900,20.954
78960,15.715
79020,4.949
79080,7.186
79140,11.004
79200,15.292
79260,6.040
79320,4.394
79380,3.699
79440,8.631
79500,9.428
79560,-2.591
79620,4.964
79680,3.882
79740,-0.246
79800,-8.302
79860,33.312
79920,11.067
79980,19.050
80040,9.886
80100,15.895
80160,9.062
80220,17.912
80280,5.470
80340,24.442
80400,2.846
80460,9.456
80520,11.544
80580,23.788
80640,21.227
80700,45.978
80760,51.280
80820,8.220
80880,-3.546
80940,8.991
81000,-0.041
81060,2.607
81120,0.389
81180,9.670
81240,13.704
81300,25.419
81360,37.552
81420,7.143
81480,7.594
81540,10.937
81600,5.424
81660,12.046
81720,45.121
81780,38.153
81840,6.012
81900,24.049
81960,44.552
82020,16.844
82080,58.042
82140,9.179
82200,16.548
82260,12.260
82320,11.603
82380,3.095
82440,3.737
82500,6.583
82560,11.174
82620,53.708
82680,27.614
82740,41.088
82800,8.707
82860,13.189
82920,16.249
82980,29.166
83040,36.021
83100,16.945
83160,11.913
83220,10.131
83280,12.041
83340,38.609
83400,42.140
83460,7.789
83520,5.073
83580,15.721
83640,18.232
83700,6.562
83760,14.421
83820,12.909
83880,11.993
83940,9.846
84000,8.917
84060,17.623
84120,10.461
84180,1.315
84240,14.478
84300,9.781
84360,2.407
84420,3.673
84480,4.030
84540,6.383
84600,7.751
84660,10.746
84720,5.795
84780,1.577
84840,13.213
84900,7.953
84960,13.307
85020,11.574
85080,-9999.000
85140,9.641
85200,11.389
85260,9.177
85320,7.864
85380,4.943
85440,8.837
85500,10.173
85560,7.119
85620,8.073
85680,5.512
85740,3.052
85800,7.700
85860,0.614
85920,0.764
85980,1.439
86040,0.354
86100,18.014
86160,46.825
86220,39.817
86280,21.354
86340,8.117
