34, 1001
Carrie Womack
NOAA Chemical Sciences Laboratory
2B Tech O3 UV Analyzer
USOS
1, 1
2024, 07, 17, 2024, 12, 21
60
Time_Start, seconds_past_midnight, Seconds from midnight UTC
1
1
-9999
O3_ppb, ppb, Ozone from 2B Tech UV Analyzer
1
SPECIAL COMMENTS:
18
PI_CONTACT_INFO: Address: 325 Broadway R/CSL7, Boulder, CO, 80305
PLATFORM: CSL Mobile Lab
LOCATION: Salt Lake City, UT
ASSOCIATED_DATA: N/A
INSTRUMENT_INFO: N/A
DATA_INFO: Units:
UNCERTAINTY: N/A
ULOD_FLAG: -7777
ULOD_VALUE: N/A
LLOD_FLAG: -8888
LLOD_VALUE: N/A
DM_CONTACT_INFO: Data Manager: Nate Howard
PROJECT_INFO: 
STIPULATIONS_ON_USE: Use of these data require prior ok from PI.
OTHER_COMMENTS: N/A
REVISION: R0
R0: Final data. RA: Preliminary Data.  For in-field use only.
Time_Start, O3_ppb
0.0,67.9
60.0,70.5
120.0,69.7
180.0,70.1
240.0,70.3
300.0,68.7
360.0,68.8
420.0,69.6
480.0,68.3
540.0,70.1
600.0,69.8
660.0,69.8
720.0,68.2
780.0,67.6
840.0,67.5
900.0,60.2
960.0,61.8
1020.0,66.5
1080.0,69.9
1140.0,68.3
1200.0,67.4
1260.0,68.1
1320.0,68.9
1380.0,68.9
1440.0,67.7
1500.0,66.1
1560.0,68.8
1620.0,68.4
1680.0,68.1
1740.0,70.1
1800.0,68.8
1860.0,69.7
1920.0,69.1
1980.0,69.7
2040.0,65.5
2100.0,67.3
2160.0,68.5
2220.0,66.3
2280.0,64.0
2340.0,66.3
2400.0,68.2
2460.0,68.1
2520.0,68.1
2580.0,68.3
2640.0,69.0
2700.0,70.0
2760.0,68.0
2820.0,69.0
2880.0,69.6
2940.0,64.4
3000.0,66.8
3060.0,68.0
3120.0,67.2
3180.0,68.7
3240.0,69.1
3300.0,66.5
3360.0,68.1
3420.0,68.2
3480.0,67.6
3540.0,68.4
3600.0,68.4
3660.0,68.1
3720.0,66.1
3780.0,66.0
3840.0,67.8
3900.0,67.8
3960.0,68.4
4020.0,66.5
4080.0,67.9
4140.0,65.8
4200.0,67.4
4260.0,66.3
4320.0,65.7
4380.0,66.4
4440.0,66.7
4500.0,66.3
4560.0,67.1
4620.0,69.1
4680.0,68.2
4740.0,67.3
4800.0,65.3
4860.0,62.6
4920.0,64.5
4980.0,62.6
5040.0,60.2
5100.0,62.1
5160.0,62.8
5220.0,62.2
5280.0,59.9
5340.0,61.1
5400.0,65.6
5460.0,45.5
5520.0,46.1
5580.0,53.4
5640.0,54.8
5700.0,57.2
5760.0,55.1
5820.0,52.0
5880.0,55.3
5940.0,52.1
6000.0,51.6
6060.0,52.4
6120.0,53.1
6180.0,54.8
6240.0,56.4
6300.0,59.8
6360.0,63.2
6420.0,57.7
6480.0,52.3
6540.0,62.0
6600.0,61.2
6660.0,60.8
6720.0,62.0
6780.0,62.0
6840.0,63.2
6900.0,63.8
6960.0,63.9
7020.0,59.4
7080.0,62.1
7140.0,60.0
7200.0,62.6
7260.0,63.2
7320.0,58.6
7380.0,54.8
7440.0,51.1
7500.0,53.5
7560.0,61.2
7620.0,56.6
7680.0,57.3
7740.0,51.4
7800.0,57.5
7860.0,56.8
7920.0,53.4
7980.0,49.4
8040.0,52.4
8100.0,58.6
8160.0,44.5
8220.0,56.7
8280.0,63.3
8340.0,61.3
8400.0,58.5
8460.0,57.8
8520.0,52.9
8580.0,40.1
8640.0,53.3
8700.0,54.5
8760.0,54.3
8820.0,52.4
8880.0,47.5
8940.0,40.8
9000.0,48.9
9060.0,43.7
9120.0,46.4
9180.0,53.7
9240.0,56.8
9300.0,55.6
9360.0,51.2
9420.0,52.9
9480.0,54.3
9540.0,54.4
9600.0,46.6
9660.0,52.0
9720.0,55.6
9780.0,50.9
9840.0,51.6
9900.0,51.6
9960.0,50.5
10020.0,49.3
10080.0,49.7
10140.0,49.5
10200.0,50.0
10260.0,50.7
10320.0,50.4
10380.0,51.5
10440.0,52.3
10500.0,53.8
10560.0,53.4
10620.0,53.7
10680.0,53.2
10740.0,53.2
10800.0,51.9
10860.0,52.2
10920.0,51.5
10980.0,52.0
11040.0,51.6
11100.0,51.3
11160.0,52.3
11220.0,52.8
11280.0,52.4
11340.0,52.5
11400.0,52.4
11460.0,51.8
11520.0,52.8
11580.0,53.8
11640.0,53.4
11700.0,55.0
11760.0,54.0
11820.0,53.1
11880.0,52.5
11940.0,53.2
12000.0,51.9
12060.0,51.4
12120.0,51.8
12180.0,52.6
12240.0,52.8
12300.0,53.1
12360.0,52.7
12420.0,52.1
12480.0,54.6
12540.0,54.7
12600.0,54.1
12660.0,53.7
12720.0,53.3
12780.0,53.6
12840.0,54.7
12900.0,53.8
12960.0,53.7
13020.0,53.1
13080.0,55.2
13140.0,54.9
13200.0,55.4
13260.0,55.2
13320.0,53.2
13380.0,53.4
13440.0,53.5
13500.0,53.2
13560.0,52.7
13620.0,54.8
13680.0,52.3
13740.0,53.7
13800.0,53.3
13860.0,52.2
13920.0,53.0
13980.0,53.1
14040.0,52.5
14100.0,53.3
14160.0,51.8
14220.0,52.0
14280.0,54.3
14340.0,53.9
14400.0,53.6
14460.0,53.7
14520.0,53.4
14580.0,54.5
14640.0,54.2
14700.0,54.5
14760.0,53.3
14820.0,54.6
14880.0,53.5
14940.0,55.0
15000.0,55.8
15060.0,55.7
15120.0,56.1
15180.0,56.3
15240.0,55.8
15300.0,56.3
15360.0,56.8
15420.0,56.7
15480.0,57.9
15540.0,57.5
15600.0,58.1
15660.0,57.3
15720.0,56.1
15780.0,56.3
15840.0,54.3
15900.0,56.9
15960.0,58.2
16020.0,57.4
16080.0,56.8
16140.0,57.5
16200.0,56.8
16260.0,56.8
16320.0,56.0
16380.0,56.0
16440.0,58.0
16500.0,57.4
16560.0,58.0
16620.0,57.5
16680.0,57.0
16740.0,56.8
16800.0,56.8
16860.0,57.4
16920.0,56.9
16980.0,56.9
17040.0,58.0
17100.0,58.0
17160.0,57.8
17220.0,58.6
17280.0,57.0
17340.0,57.0
17400.0,57.4
17460.0,59.2
17520.0,58.0
17580.0,57.3
17640.0,58.1
17700.0,57.5
17760.0,57.3
17820.0,57.3
17880.0,57.2
17940.0,57.5
18000.0,56.8
18060.0,56.9
18120.0,57.8
18180.0,58.6
18240.0,59.1
18300.0,58.8
18360.0,58.2
18420.0,58.9
18480.0,59.7
18540.0,58.8
18600.0,58.9
18660.0,58.4
18720.0,57.7
18780.0,57.9
18840.0,59.0
18900.0,59.0
18960.0,57.7
19020.0,58.9
19080.0,56.6
19140.0,58.5
19200.0,58.6
19260.0,58.0
19320.0,58.8
19380.0,52.9
19440.0,57.8
19500.0,59.7
19560.0,57.9
19620.0,58.4
19680.0,57.0
19740.0,57.1
19800.0,56.2
19860.0,58.3
19920.0,57.9
19980.0,58.0
20040.0,58.1
20100.0,58.5
20160.0,57.6
20220.0,58.8
20280.0,58.8
20340.0,58.9
20400.0,59.2
20460.0,58.6
20520.0,57.2
20580.0,55.3
20640.0,56.8
20700.0,59.9
20760.0,58.1
20820.0,57.0
20880.0,58.2
20940.0,56.9
21000.0,57.9
21060.0,56.4
21120.0,55.2
21180.0,55.6
21240.0,56.3
21300.0,56.4
21360.0,57.9
21420.0,57.6
21480.0,57.5
21540.0,57.3
21600.0,56.6
21660.0,57.3
21720.0,58.1
21780.0,58.1
21840.0,59.1
21900.0,59.5
21960.0,59.9
22020.0,59.1
22080.0,59.2
22140.0,59.1
22200.0,60.2
22260.0,58.1
22320.0,58.3
22380.0,57.9
22440.0,58.8
22500.0,58.1
22560.0,58.4
22620.0,59.0
22680.0,59.2
22740.0,58.8
22800.0,57.2
22860.0,59.1
22920.0,58.4
22980.0,60.3
23040.0,59.5
23100.0,58.8
23160.0,57.6
23220.0,59.6
23280.0,59.8
23340.0,59.3
23400.0,58.6
23460.0,59.9
23520.0,59.7
23580.0,59.9
23640.0,59.0
23700.0,59.7
23760.0,59.9
23820.0,59.3
23880.0,59.9
23940.0,58.3
24000.0,59.4
24060.0,59.1
24120.0,58.8
24180.0,59.1
24240.0,60.5
24300.0,59.6
24360.0,60.7
24420.0,59.9
24480.0,59.9
24540.0,59.8
24600.0,59.5
24660.0,58.3
24720.0,59.5
24780.0,59.2
24840.0,58.8
24900.0,58.9
24960.0,57.4
25020.0,57.2
25080.0,58.2
25140.0,58.0
25200.0,57.2
25260.0,58.3
25320.0,58.6
25380.0,57.0
25440.0,57.3
25500.0,56.0
25560.0,56.1
25620.0,57.7
25680.0,58.3
25740.0,57.4
25800.0,56.9
25860.0,57.3
25920.0,58.4
25980.0,58.2
26040.0,58.7
26100.0,58.9
26160.0,57.2
26220.0,57.5
26280.0,58.6
26340.0,58.1
26400.0,57.8
26460.0,57.6
26520.0,57.8
26580.0,57.8
26640.0,57.5
26700.0,57.5
26760.0,57.8
26820.0,57.0
26880.0,56.7
26940.0,56.4
27000.0,57.1
27060.0,57.0
27120.0,56.1
27180.0,56.8
27240.0,54.9
27300.0,56.5
27360.0,56.9
27420.0,56.9
27480.0,56.6
27540.0,57.4
27600.0,57.7
27660.0,57.1
27720.0,57.1
27780.0,58.1
27840.0,57.4
27900.0,56.8
27960.0,56.3
28020.0,57.1
28080.0,57.2
28140.0,56.8
28200.0,56.9
28260.0,56.2
28320.0,54.4
28380.0,52.8
28440.0,51.1
28500.0,51.6
28560.0,52.0
28620.0,51.2
28680.0,49.6
28740.0,50.9
28800.0,50.4
28860.0,50.7
28920.0,50.4
28980.0,49.1
29040.0,48.8
29100.0,48.2
29160.0,48.4
29220.0,49.4
29280.0,49.1
29340.0,50.7
29400.0,50.5
29460.0,53.5
29520.0,53.6
29580.0,52.6
29640.0,51.5
29700.0,50.9
29760.0,51.2
29820.0,49.6
29880.0,50.9
29940.0,56.6
30000.0,55.4
30060.0,53.0
30120.0,50.2
30180.0,52.2
30240.0,52.4
30300.0,54.9
30360.0,56.1
30420.0,56.0
30480.0,55.7
30540.0,55.7
30600.0,54.9
30660.0,56.0
30720.0,56.0
30780.0,57.0
30840.0,55.5
30900.0,55.5
30960.0,56.2
31020.0,55.5
31080.0,55.8
31140.0,55.4
31200.0,56.0
31260.0,55.6
31320.0,56.0
31380.0,54.6
31440.0,54.4
31500.0,55.4
31560.0,54.8
31620.0,55.3
31680.0,54.3
31740.0,55.0
31800.0,55.1
31860.0,54.8
31920.0,54.6
31980.0,54.6
32040.0,55.0
32100.0,53.6
32160.0,54.4
32220.0,53.2
32280.0,53.5
32340.0,53.6
32400.0,54.0
32460.0,54.1
32520.0,53.7
32580.0,54.1
32640.0,53.3
32700.0,54.1
32760.0,53.4
32820.0,52.9
32880.0,53.4
32940.0,52.8
33000.0,51.8
33060.0,52.6
33120.0,53.1
33180.0,52.4
33240.0,52.4
33300.0,52.3
33360.0,52.3
33420.0,51.9
33480.0,52.5
33540.0,52.6
33600.0,52.1
33660.0,52.0
33720.0,52.5
33780.0,52.4
33840.0,53.1
33900.0,52.4
33960.0,51.7
34020.0,52.2
34080.0,52.6
34140.0,52.5
34200.0,52.2
34260.0,52.5
34320.0,52.7
34380.0,53.0
34440.0,52.0
34500.0,53.3
34560.0,52.4
34620.0,52.2
34680.0,52.4
34740.0,52.4
34800.0,52.3
34860.0,52.5
34920.0,52.2
34980.0,51.7
35040.0,50.6
35100.0,52.6
35160.0,52.1
35220.0,51.5
35280.0,51.5
35340.0,51.9
35400.0,52.6
35460.0,52.2
35520.0,52.2
35580.0,52.4
35640.0,51.3
35700.0,51.2
35760.0,50.8
35820.0,52.1
35880.0,52.1
35940.0,51.1
36000.0,51.7
36060.0,51.5
36120.0,50.5
36180.0,51.1
36240.0,50.7
36300.0,50.8
36360.0,50.6
36420.0,50.8
36480.0,50.9
36540.0,50.4
36600.0,51.5
36660.0,52.2
36720.0,51.5
36780.0,52.1
36840.0,52.2
36900.0,51.5
36960.0,52.4
37020.0,52.5
37080.0,52.9
37140.0,52.6
37200.0,53.6
37260.0,51.2
37320.0,53.5
37380.0,51.8
37440.0,52.8
37500.0,52.0
37560.0,52.6
37620.0,52.5
37680.0,52.1
37740.0,52.4
37800.0,53.6
37860.0,52.9
37920.0,53.6
37980.0,53.2
38040.0,53.7
38100.0,53.3
38160.0,53.2
38220.0,52.8
38280.0,52.7
38340.0,52.8
38400.0,53.4
38460.0,53.3
38520.0,53.1
38580.0,53.0
38640.0,53.2
38700.0,53.5
38760.0,53.1
38820.0,52.9
38880.0,52.5
38940.0,52.4
39000.0,53.5
39060.0,52.8
39120.0,52.8
39180.0,53.1
39240.0,52.4
39300.0,52.4
39360.0,53.3
39420.0,53.2
39480.0,52.8
39540.0,53.3
39600.0,53.0
39660.0,53.2
39720.0,53.2
39780.0,53.5
39840.0,53.3
39900.0,51.8
39960.0,50.7
40020.0,51.7
40080.0,53.3
40140.0,52.6
40200.0,53.7
40260.0,53.4
40320.0,53.1
40380.0,53.5
40440.0,53.4
40500.0,52.6
40560.0,53.2
40620.0,52.4
40680.0,52.2
40740.0,52.8
40800.0,52.9
40860.0,52.4
40920.0,52.6
40980.0,52.7
41040.0,52.5
41100.0,52.2
41160.0,52.4
41220.0,52.4
41280.0,52.5
41340.0,52.4
41400.0,51.7
41460.0,52.3
41520.0,51.7
41580.0,51.9
41640.0,51.8
41700.0,52.7
41760.0,52.9
41820.0,52.6
41880.0,52.5
41940.0,52.9
42000.0,51.9
42060.0,52.7
42120.0,51.2
42180.0,50.4
42240.0,52.0
42300.0,51.9
42360.0,53.2
42420.0,53.2
42480.0,53.4
42540.0,51.8
42600.0,51.5
42660.0,52.3
42720.0,53.1
42780.0,53.2
42840.0,54.1
42900.0,53.3
42960.0,53.0
43020.0,53.6
43080.0,53.6
43140.0,52.8
43200.0,52.8
43260.0,53.2
43320.0,53.6
43380.0,54.1
43440.0,53.4
43500.0,53.3
43560.0,53.1
43620.0,53.0
43680.0,53.6
43740.0,52.6
43800.0,51.6
43860.0,53.2
43920.0,52.0
43980.0,51.9
44040.0,52.3
44100.0,52.4
44160.0,52.4
44220.0,52.6
44280.0,52.0
44340.0,51.7
44400.0,53.2
44460.0,51.6
44520.0,50.5
44580.0,52.1
44640.0,52.0
44700.0,51.9
44760.0,51.4
44820.0,52.4
44880.0,53.0
44940.0,52.2
45000.0,50.1
45060.0,51.5
45120.0,52.9
45180.0,52.8
45240.0,52.2
45300.0,53.1
45360.0,52.9
45420.0,51.8
45480.0,53.5
45540.0,52.7
45600.0,49.8
45660.0,51.0
45720.0,52.0
45780.0,52.3
45840.0,52.7
45900.0,49.8
45960.0,49.6
46020.0,50.9
46080.0,51.2
46140.0,50.9
46200.0,51.8
46260.0,51.6
46320.0,52.2
46380.0,52.1
46440.0,50.4
46500.0,51.1
46560.0,51.2
46620.0,50.8
46680.0,51.4
46740.0,51.7
46800.0,50.7
46860.0,48.8
46920.0,49.9
46980.0,51.3
47040.0,51.3
47100.0,50.6
47160.0,50.6
47220.0,50.3
47280.0,51.4
47340.0,52.0
47400.0,51.0
47460.0,51.2
47520.0,51.0
47580.0,49.4
47640.0,50.3
47700.0,50.9
47760.0,50.6
47820.0,50.5
47880.0,51.4
47940.0,49.0
48000.0,51.2
48060.0,50.7
48120.0,50.4
48180.0,50.2
48240.0,51.4
48300.0,49.1
48360.0,49.4
48420.0,49.2
48480.0,48.6
48540.0,50.0
48600.0,50.2
48660.0,50.6
48720.0,50.7
48780.0,49.0
48840.0,49.3
48900.0,49.8
48960.0,50.8
49020.0,50.5
49080.0,50.9
49140.0,49.3
49200.0,50.0
49260.0,49.0
49320.0,47.5
49380.0,48.3
49440.0,49.3
49500.0,48.8
49560.0,48.4
49620.0,48.7
49680.0,49.5
49740.0,49.5
49800.0,49.1
49860.0,47.0
49920.0,49.6
49980.0,48.0
50040.0,47.6
50100.0,48.4
50160.0,48.3
50220.0,44.2
50280.0,46.5
50340.0,48.7
50400.0,49.1
50460.0,49.4
50520.0,48.9
50580.0,47.8
50640.0,49.7
50700.0,49.9
50760.0,49.1
50820.0,48.9
50880.0,49.4
50940.0,47.6
51000.0,48.2
51060.0,44.9
51120.0,48.8
51180.0,47.9
51240.0,47.9
51300.0,49.4
51360.0,49.4
51420.0,49.7
51480.0,47.8
51540.0,49.2
51600.0,49.9
51660.0,50.2
51720.0,48.9
51780.0,49.0
51840.0,48.5
51900.0,47.6
51960.0,49.3
52020.0,50.3
52080.0,49.7
52140.0,49.9
52200.0,49.9
52260.0,50.6
52320.0,50.4
52380.0,50.7
52440.0,51.1
52500.0,49.5
52560.0,51.3
52620.0,50.7
52680.0,50.8
52740.0,49.4
52800.0,51.7
52860.0,50.2
52920.0,51.5
52980.0,50.1
53040.0,50.3
53100.0,51.6
53160.0,51.8
53220.0,50.9
53280.0,49.4
53340.0,49.4
53400.0,49.5
53460.0,49.4
53520.0,50.7
53580.0,49.3
53640.0,49.3
53700.0,49.6
53760.0,49.4
53820.0,50.5
53880.0,51.8
53940.0,51.4
54000.0,51.0
54060.0,52.0
54120.0,50.7
54180.0,51.8
54240.0,49.9
54300.0,49.5
54360.0,50.1
54420.0,52.5
54480.0,53.5
54540.0,51.1
54600.0,52.2
54660.0,53.8
54720.0,53.8
54780.0,51.8
54840.0,52.3
54900.0,53.6
54960.0,53.4
55020.0,51.9
55080.0,53.1
55140.0,52.7
55200.0,52.6
55260.0,-9999.0
55320.0,51.6
55380.0,51.1
55440.0,51.3
55500.0,52.5
55560.0,51.5
55620.0,52.5
55680.0,53.2
55740.0,53.0
55800.0,52.3
55860.0,52.7
55920.0,51.7
55980.0,52.4
56040.0,50.8
56100.0,50.6
56160.0,51.2
56220.0,53.8
56280.0,53.0
56340.0,53.4
56400.0,51.7
56460.0,52.4
56520.0,53.7
56580.0,53.8
56640.0,53.7
56700.0,53.7
56760.0,53.5
56820.0,-9999.0
56880.0,-9999.0
56940.0,-9999.0
57000.0,-9999.0
57060.0,-9999.0
57120.0,-9999.0
57180.0,-9999.0
57240.0,-9999.0
57300.0,-9999.0
57360.0,-9999.0
57420.0,-9999.0
57480.0,-9999.0
57540.0,53.7
57600.0,53.8
57660.0,53.7
57720.0,53.8
57780.0,53.7
57840.0,53.7
57900.0,53.7
57960.0,53.7
58020.0,53.8
58080.0,53.6
58140.0,53.7
58200.0,52.2
58260.0,53.9
58320.0,54.8
58380.0,54.8
58440.0,54.8
58500.0,55.5
58560.0,55.5
58620.0,53.5
58680.0,53.6
58740.0,53.0
58800.0,52.3
58860.0,54.4
58920.0,53.7
58980.0,56.7
59040.0,54.7
59100.0,55.3
59160.0,56.2
59220.0,56.1
59280.0,55.0
59340.0,56.1
59400.0,55.6
59460.0,57.5
59520.0,56.9
59580.0,56.4
59640.0,54.8
59700.0,55.7
59760.0,54.0
59820.0,56.0
59880.0,57.5
59940.0,56.1
60000.0,55.5
60060.0,56.5
60120.0,56.4
60180.0,57.7
60240.0,57.1
60300.0,55.7
60360.0,57.7
60420.0,56.2
60480.0,54.2
60540.0,58.2
60600.0,55.3
60660.0,55.5
60720.0,55.8
60780.0,56.7
60840.0,57.1
60900.0,58.4
60960.0,57.0
61020.0,57.6
61080.0,56.7
61140.0,55.0
61200.0,58.4
61260.0,56.3
61320.0,57.3
61380.0,58.5
61440.0,58.5
61500.0,59.9
61560.0,62.6
61620.0,63.1
61680.0,60.2
61740.0,59.0
61800.0,60.1
61860.0,59.3
61920.0,59.4
61980.0,59.5
62040.0,60.2
62100.0,60.5
62160.0,58.9
62220.0,60.5
62280.0,60.9
62340.0,62.1
62400.0,62.7
62460.0,60.5
62520.0,62.1
62580.0,62.3
62640.0,62.5
62700.0,63.2
62760.0,59.0
62820.0,57.2
62880.0,56.8
62940.0,63.8
63000.0,65.0
63060.0,65.6
63120.0,64.2
63180.0,62.6
63240.0,65.2
63300.0,64.4
63360.0,65.4
63420.0,65.5
63480.0,64.5
63540.0,65.7
63600.0,64.9
63660.0,64.9
63720.0,66.4
63780.0,66.3
63840.0,65.2
63900.0,65.8
63960.0,67.9
64020.0,68.1
64080.0,67.9
64140.0,65.8
64200.0,63.2
64260.0,68.0
64320.0,68.7
64380.0,68.9
64440.0,67.7
64500.0,65.4
64560.0,66.8
64620.0,71.3
64680.0,70.6
64740.0,70.8
64800.0,70.1
64860.0,70.1
64920.0,70.4
64980.0,72.1
65040.0,72.2
65100.0,71.4
65160.0,71.1
65220.0,73.0
65280.0,72.1
65340.0,73.6
65400.0,74.7
65460.0,73.5
65520.0,71.6
65580.0,71.5
65640.0,72.2
65700.0,73.3
65760.0,71.6
65820.0,72.1
65880.0,74.1
65940.0,74.1
66000.0,74.3
66060.0,72.3
66120.0,74.1
66180.0,75.3
66240.0,74.7
66300.0,72.9
66360.0,73.9
66420.0,73.2
66480.0,75.2
66540.0,75.1
66600.0,75.2
66660.0,75.2
66720.0,76.0
66780.0,74.6
66840.0,74.4
66900.0,75.5
66960.0,72.0
67020.0,74.5
67080.0,74.4
67140.0,73.7
67200.0,74.8
67260.0,75.3
67320.0,74.5
67380.0,74.9
67440.0,76.1
67500.0,76.0
67560.0,76.5
67620.0,76.1
67680.0,75.8
67740.0,76.4
67800.0,76.9
67860.0,76.7
67920.0,75.6
67980.0,75.1
68040.0,74.9
68100.0,74.6
68160.0,75.9
68220.0,75.4
68280.0,74.5
68340.0,76.0
68400.0,75.7
68460.0,77.2
68520.0,76.4
68580.0,74.7
68640.0,77.0
68700.0,77.4
68760.0,77.6
68820.0,77.4
68880.0,75.4
68940.0,75.8
69000.0,72.8
69060.0,74.3
69120.0,73.4
69180.0,72.0
69240.0,71.6
69300.0,72.4
69360.0,74.0
69420.0,74.4
69480.0,70.6
69540.0,75.1
69600.0,76.3
69660.0,72.6
69720.0,71.5
69780.0,74.6
69840.0,69.6
69900.0,71.0
69960.0,68.5
70020.0,68.1
70080.0,71.4
70140.0,70.6
70200.0,70.9
70260.0,69.6
70320.0,68.6
70380.0,70.0
70440.0,70.2
70500.0,70.0
70560.0,73.9
70620.0,75.9
70680.0,74.4
70740.0,73.9
70800.0,72.2
70860.0,76.3
70920.0,72.0
70980.0,73.6
71040.0,73.4
71100.0,75.8
71160.0,77.3
71220.0,74.7
71280.0,74.1
71340.0,71.7
71400.0,73.1
71460.0,75.2
71520.0,78.8
71580.0,78.0
71640.0,75.5
71700.0,74.0
71760.0,75.7
71820.0,75.9
71880.0,79.1
71940.0,80.1
72000.0,80.4
72060.0,78.8
72120.0,77.3
72180.0,76.5
72240.0,76.0
72300.0,74.7
72360.0,78.7
72420.0,83.1
72480.0,80.2
72540.0,79.7
72600.0,79.3
72660.0,80.1
72720.0,84.1
72780.0,82.1
72840.0,80.6
72900.0,82.3
72960.0,79.4
73020.0,82.7
73080.0,81.7
73140.0,81.0
73200.0,81.9
73260.0,80.0
73320.0,81.2
73380.0,80.8
73440.0,82.7
73500.0,79.9
73560.0,81.8
73620.0,82.1
73680.0,79.8
73740.0,79.9
73800.0,81.8
73860.0,81.2
73920.0,82.5
73980.0,83.3
74040.0,83.6
74100.0,78.8
74160.0,78.1
74220.0,81.6
74280.0,79.6
74340.0,75.5
74400.0,77.6
74460.0,78.0
74520.0,78.8
74580.0,77.6
74640.0,80.7
74700.0,81.2
74760.0,81.3
74820.0,80.4
74880.0,81.2
74940.0,80.3
75000.0,81.2
75060.0,79.0
75120.0,77.7
75180.0,76.9
75240.0,78.3
75300.0,77.2
75360.0,78.9
75420.0,74.5
75480.0,74.9
75540.0,75.4
75600.0,75.9
75660.0,75.4
75720.0,76.5
75780.0,80.3
75840.0,79.5
75900.0,80.4
75960.0,82.4
76020.0,83.0
76080.0,79.7
76140.0,80.4
76200.0,83.8
76260.0,83.9
76320.0,84.3
76380.0,85.1
76440.0,83.4
76500.0,79.7
76560.0,77.3
76620.0,83.2
76680.0,81.0
76740.0,80.3
76800.0,78.5
76860.0,82.9
76920.0,80.6
76980.0,80.9
77040.0,83.4
77100.0,79.5
77160.0,79.6
77220.0,81.0
77280.0,81.7
77340.0,79.7
77400.0,81.4
77460.0,79.0
77520.0,82.2
77580.0,77.9
77640.0,81.4
77700.0,82.6
77760.0,83.5
77820.0,84.6
77880.0,84.1
77940.0,86.7
78000.0,86.7
78060.0,84.5
78120.0,85.6
78180.0,84.2
78240.0,81.5
78300.0,82.2
78360.0,87.0
78420.0,86.8
78480.0,83.4
78540.0,83.4
78600.0,82.5
78660.0,83.6
78720.0,83.4
78780.0,83.7
78840.0,-9999.0
78900.0,-9999.0
78960.0,-9999.0
79020.0,85.8
79080.0,84.2
79140.0,82.9
79200.0,85.0
79260.0,83.7
79320.0,84.5
79380.0,84.3
79440.0,82.4
79500.0,84.4
79560.0,83.4
79620.0,82.1
79680.0,82.1
79740.0,81.9
79800.0,82.0
79860.0,80.2
79920.0,79.1
79980.0,79.7
80040.0,79.9
80100.0,80.4
80160.0,80.4
80220.0,80.4
80280.0,79.8
80340.0,80.2
80400.0,80.6
80460.0,82.1
80520.0,82.8
80580.0,82.0
80640.0,80.0
80700.0,79.8
80760.0,75.5
80820.0,83.2
80880.0,83.8
80940.0,84.1
81000.0,84.0
81060.0,83.4
81120.0,84.5
81180.0,83.3
81240.0,81.5
81300.0,78.8
81360.0,75.2
81420.0,76.1
81480.0,81.9
81540.0,80.8
81600.0,80.8
81660.0,79.7
81720.0,77.8
81780.0,74.3
81840.0,79.4
81900.0,80.0
81960.0,74.1
82020.0,77.4
82080.0,71.1
82140.0,78.4
82200.0,79.7
82260.0,80.0
82320.0,80.0
82380.0,81.1
82440.0,82.2
82500.0,81.4
82560.0,77.7
82620.0,77.5
82680.0,78.3
82740.0,79.9
82800.0,79.8
82860.0,82.3
82920.0,80.9
82980.0,84.2
83040.0,77.2
83100.0,82.3
83160.0,80.5
83220.0,80.9
83280.0,83.7
83340.0,82.1
83400.0,75.6
83460.0,81.0
83520.0,83.5
83580.0,81.5
83640.0,79.1
83700.0,82.7
83760.0,81.5
83820.0,80.2
83880.0,80.4
83940.0,78.7
84000.0,81.7
84060.0,81.3
84120.0,83.1
84180.0,83.9
84240.0,82.8
84300.0,82.3
84360.0,86.0
84420.0,84.7
84480.0,85.5
84540.0,85.1
84600.0,83.9
84660.0,82.1
84720.0,82.5
84780.0,83.9
84840.0,82.9
84900.0,84.4
84960.0,84.3
85020.0,84.3
85080.0,86.0
85140.0,87.0
85200.0,85.9
85260.0,85.2
85320.0,86.5
85380.0,86.7
85440.0,87.5
85500.0,86.0
85560.0,86.6
85620.0,85.7
85680.0,89.1
85740.0,88.2
85800.0,86.0
85860.0,89.4
85920.0,88.5
85980.0,89.1
86040.0,88.8
86100.0,87.9
86160.0,79.0
86220.0,86.3
86280.0,80.5
86340.0,87.9
