37, 1001
Michael A Robinson, Chris Jernigan, Subi Thakali
NOAA ESRL Chemical Sciences Laboratory and CIRES, U. of Colorado
NOAA Iodide CIMS Instrument
USOS
1, 1
2024, 08, 08, 2024, 08, 09
1
starttime_UTC, seconds_past_midnight, seconds_of_day_since_00:00:00_UTC
5
1, 1, 1, 1, 1
-9999, -9999, -9999, -9999, -9999
C4H7NO5_NOAACIMS, pptv, Gas_C4H7NO5_InSitu_S_AVMR, 
ISOPN_NOAACIMS, pptv, Gas_ISOPN_InSitu_S_AVMR, 
C5H10O3_NOAACIMS, pptv, Gas_C5H10O3_InSitu_S_AVMR, 
C5H9NO5_NOAACIMS, pptv, Gas_C5H9NO5_InSitu_S_AVMR, 
C10H17NO4_NOAACIMS, pptv, Gas_C10H17NO4_InSitu_S_AVMR, 
0
18
PI_CONTACT_INFO: 325 Broadway, R/CSD 7, Boulder, Colorado 80305; michael.a.robinson@noaa.gov; chris.jernigan@noaa.gov;
PLATFORM: NOAA CSL Mobile Lab
LOCATION: SLC, Utah
ASSOCIATED_DATA: 1Hz data also available on request.
INSTRUMENT_INFO: NOAA I- ToF CIMS
DATA_INFO: All data in parts per trillion by volume (pptv). 1 Hz data is available upon request.
UNCERTAINTY: TBD
ULOD_FLAG: -7777
ULOD_VALUE: N/A
LLOD_FLAG: -8888
LLOD_VALUE: N/A
DM_CONTACT_INFO: Nathan Howard; nathan.h.howard@noaa.gov
PROJECT_INFO: USOS, summer 2024. https://csl.noaa.gov/groups/csl7/measurements/2024usos/
STIPULATIONS_ON_USE: Users are strongly encouraged to contact the PI for proper data usage.
OTHER_COMMENTS: 
REVISION: RA
RA: Preliminary Data; For in-field use only
starttime_UTC, C4H7NO5_NOAACIMS, ISOPN_NOAACIMS, C5H10O3_NOAACIMS, C5H9NO5_NOAACIMS, C10H17NO4_NOAACIMS
     0,  2.062,  9.661, 27.523,  3.352,  0.061
    60,  2.082, 10.250, 25.998,  3.459,  0.081
   120,  2.128,  9.330, 25.815,  3.450,  0.088
   180,  2.120,  8.943, 27.151,  3.469,  0.070
   240,  2.112,  8.289, 28.013,  3.495,  0.056
   300,  2.085,  8.998, 27.361,  3.467,  0.074
   360,  2.126,  9.442, 27.946,  3.539,  0.038
   420,  2.191,  9.778, 29.333,  3.675,  0.047
   480,  2.182, 10.701, 29.170,  3.734,  0.018
   540,  2.192, 10.408, 27.654,  3.584,  0.049
   600,  2.246, 10.862, 29.445,  3.594,  0.032
   660,  2.257, 10.281, 28.179,  3.652,  0.053
   720,  2.194,  7.800, 22.842,  3.638,  0.049
   780,  2.039,  5.965, 20.484,  3.776,  0.050
   840,  2.177,  7.438, 20.613,  3.579,  0.053
   900,  2.256,  8.573, 21.827,  3.643,  0.023
   960,  2.326, 10.322, 25.766,  3.800,  0.061
  1020,  2.345, 11.330, 29.594,  3.901,  0.049
  1080,  2.313, 11.664, 30.367,  3.628,  0.047
  1140,  2.465, 12.425, 31.383,  3.809,  0.081
  1200,  2.393, 12.380, 31.602,  3.596,  0.103
  1260,  2.438, 11.972, 31.717,  3.581,  0.078
  1320,  2.403, 12.022, 32.343,  3.827,  0.075
  1380,  2.278, 10.609, 31.064,  3.719,  0.090
  1440,  2.358, 11.221, 31.803,  3.958,  0.068
  1500,  2.312, 11.365, 31.200,  3.845,  0.096
  1560,  2.331, 10.932, 31.946,  3.775,  0.044
  1620,  2.309, 11.124, 32.638,  3.679,  0.101
  1680, -9999.000, -9999.000, -9999.000, -9999.000, -9999.000
  1740,  2.307, 11.093, 29.712,  4.006,  0.051
  1800,  2.368, 11.893, 30.367,  4.046,  0.063
  1860,  2.369, 12.589, 31.956,  4.016,  0.087
  1920,  2.359, 11.603, 32.172,  4.194,  0.099
  1980,  2.348, 12.352, 33.526,  3.896,  0.090
  2040,  2.392, 12.441, 31.860,  3.886,  0.064
  2100,  2.429, 12.634, 33.387,  3.944,  0.164
  2160,  2.461, 12.453, 30.337,  3.846,  0.053
  2220,  2.358, 11.945, 30.742,  3.947,  0.059
  2280,  2.415, 11.666, 29.109,  3.895,  0.117
  2340,  2.361, 11.417, 29.626,  3.843,  0.085
  2400,  2.324, 11.184, 28.359,  3.725,  0.055
  2460,  2.322, 11.598, 29.138,  3.900,  0.106
  2520,  2.326, 11.341, 29.614,  3.872,  0.149
  2580,  2.231, 11.070, 27.961,  3.746,  0.079
  2640,  2.165, 10.597, 29.090,  3.860,  0.044
  2700,  2.186, 10.412, 28.180,  3.667,  0.048
  2760,  2.180, 10.749, 28.446,  3.945,  0.071
  2820, -9999.000, -9999.000, -9999.000, -9999.000, -9999.000
  2880, -9999.000, -9999.000, -9999.000, -9999.000, -9999.000
  2940, -9999.000, -9999.000, -9999.000, -9999.000, -9999.000
  3000, -9999.000, -9999.000, -9999.000, -9999.000, -9999.000
  3060, -9999.000, -9999.000, -9999.000, -9999.000, -9999.000
  3120, -9999.000, -9999.000, -9999.000, -9999.000, -9999.000
  3180, -9999.000, -9999.000, -9999.000, -9999.000, -9999.000
  3240, -9999.000, -9999.000, -9999.000, -9999.000, -9999.000
  3300, -9999.000, -9999.000, -9999.000, -9999.000, -9999.000
  3360, -9999.000, -9999.000, -9999.000, -9999.000, -9999.000
  3420, -9999.000, -9999.000, -9999.000, -9999.000, -9999.000
  3480, -9999.000, -9999.000, -9999.000, -9999.000, -9999.000
  3540, -9999.000, -9999.000, -9999.000, -9999.000, -9999.000
  3600, -9999.000, -9999.000, -9999.000, -9999.000, -9999.000
  3660, -9999.000, -9999.000, -9999.000, -9999.000, -9999.000
  3720, -9999.000, -9999.000, -9999.000, -9999.000, -9999.000
  3780, -9999.000, -9999.000, -9999.000, -9999.000, -9999.000
  3840, -9999.000, -9999.000, -9999.000, -9999.000, -9999.000
  3900, -9999.000, -9999.000, -9999.000, -9999.000, -9999.000
  3960, -9999.000, -9999.000, -9999.000, -9999.000, -9999.000
  4020, -9999.000, -9999.000, -9999.000, -9999.000, -9999.000
  4080, -9999.000, -9999.000, -9999.000, -9999.000, -9999.000
  4140, -9999.000, -9999.000, -9999.000, -9999.000, -9999.000
  4200, -9999.000, -9999.000, -9999.000, -9999.000, -9999.000
  4260, -9999.000, -9999.000, -9999.000, -9999.000, -9999.000
  4320, -9999.000, -9999.000, -9999.000, -9999.000, -9999.000
  4380, -9999.000, -9999.000, -9999.000, -9999.000, -9999.000
  4440, -9999.000, -9999.000, -9999.000, -9999.000, -9999.000
  4500, -9999.000, -9999.000, -9999.000, -9999.000, -9999.000
  4560, -9999.000, -9999.000, -9999.000, -9999.000, -9999.000
  4620, -9999.000, -9999.000, -9999.000, -9999.000, -9999.000
  4680, -9999.000, -9999.000, -9999.000, -9999.000, -9999.000
  4740, -9999.000, -9999.000, -9999.000, -9999.000, -9999.000
  4800, -9999.000, -9999.000, -9999.000, -9999.000, -9999.000
  4860, -9999.000, -9999.000, -9999.000, -9999.000, -9999.000
  4920, -9999.000, -9999.000, -9999.000, -9999.000, -9999.000
  4980, -9999.000, -9999.000, -9999.000, -9999.000, -9999.000
  5040, -9999.000, -9999.000, -9999.000, -9999.000, -9999.000
  5100, -9999.000, -9999.000, -9999.000, -9999.000, -9999.000
  5160, -9999.000, -9999.000, -9999.000, -9999.000, -9999.000
  5220, -9999.000, -9999.000, -9999.000, -9999.000, -9999.000
  5280, -9999.000, -9999.000, -9999.000, -9999.000, -9999.000
  5340, -9999.000, -9999.000, -9999.000, -9999.000, -9999.000
  5400, -9999.000, -9999.000, -9999.000, -9999.000, -9999.000
  5460, -9999.000, -9999.000, -9999.000, -9999.000, -9999.000
  5520, -9999.000, -9999.000, -9999.000, -9999.000, -9999.000
  5580, -9999.000, -9999.000, -9999.000, -9999.000, -9999.000
  5640, -9999.000, -9999.000, -9999.000, -9999.000, -9999.000
  5700, -9999.000, -9999.000, -9999.000, -9999.000, -9999.000
  5760, -9999.000, -9999.000, -9999.000, -9999.000, -9999.000
  5820, -9999.000, -9999.000, -9999.000, -9999.000, -9999.000
  5880, -9999.000, -9999.000, -9999.000, -9999.000, -9999.000
  5940, -9999.000, -9999.000, -9999.000, -9999.000, -9999.000
  6000, -9999.000, -9999.000, -9999.000, -9999.000, -9999.000
  6060, -9999.000, -9999.000, -9999.000, -9999.000, -9999.000
  6120, -9999.000, -9999.000, -9999.000, -9999.000, -9999.000
  6180, -9999.000, -9999.000, -9999.000, -9999.000, -9999.000
  6240, -9999.000, -9999.000, -9999.000, -9999.000, -9999.000
  6300, -9999.000, -9999.000, -9999.000, -9999.000, -9999.000
  6360, -9999.000, -9999.000, -9999.000, -9999.000, -9999.000
  6420, -9999.000, -9999.000, -9999.000, -9999.000, -9999.000
  6480, -9999.000, -9999.000, -9999.000, -9999.000, -9999.000
  6540, -9999.000, -9999.000, -9999.000, -9999.000, -9999.000
  6600, -9999.000, -9999.000, -9999.000, -9999.000, -9999.000
  6660, -9999.000, -9999.000, -9999.000, -9999.000, -9999.000
  6720, -9999.000, -9999.000, -9999.000, -9999.000, -9999.000
  6780, -9999.000, -9999.000, -9999.000, -9999.000, -9999.000
  6840, -9999.000, -9999.000, -9999.000, -9999.000, -9999.000
  6900, -9999.000, -9999.000, -9999.000, -9999.000, -9999.000
  6960, -9999.000, -9999.000, -9999.000, -9999.000, -9999.000
  7020, -9999.000, -9999.000, -9999.000, -9999.000, -9999.000
  7080, -9999.000, -9999.000, -9999.000, -9999.000, -9999.000
  7140, -9999.000, -9999.000, -9999.000, -9999.000, -9999.000
  7200, -9999.000, -9999.000, -9999.000, -9999.000, -9999.000
  7260, -9999.000, -9999.000, -9999.000, -9999.000, -9999.000
  7320, -9999.000, -9999.000, -9999.000, -9999.000, -9999.000
  7380, -9999.000, -9999.000, -9999.000, -9999.000, -9999.000
  7440, -9999.000, -9999.000, -9999.000, -9999.000, -9999.000
  7500, -9999.000, -9999.000, -9999.000, -9999.000, -9999.000
  7560, -9999.000, -9999.000, -9999.000, -9999.000, -9999.000
  7620, -9999.000, -9999.000, -9999.000, -9999.000, -9999.000
  7680, -9999.000, -9999.000, -9999.000, -9999.000, -9999.000
  7740, -9999.000, -9999.000, -9999.000, -9999.000, -9999.000
  7800, -9999.000, -9999.000, -9999.000, -9999.000, -9999.000
  7860, -9999.000, -9999.000, -9999.000, -9999.000, -9999.000
  7920, -9999.000, -9999.000, -9999.000, -9999.000, -9999.000
  7980, -9999.000, -9999.000, -9999.000, -9999.000, -9999.000
  8040, -9999.000, -9999.000, -9999.000, -9999.000, -9999.000
  8100, -9999.000, -9999.000, -9999.000, -9999.000, -9999.000
  8160, -9999.000, -9999.000, -9999.000, -9999.000, -9999.000
  8220, -9999.000, -9999.000, -9999.000, -9999.000, -9999.000
  8280, -9999.000, -9999.000, -9999.000, -9999.000, -9999.000
  8340, -9999.000, -9999.000, -9999.000, -9999.000, -9999.000
  8400, -9999.000, -9999.000, -9999.000, -9999.000, -9999.000
  8460, -9999.000, -9999.000, -9999.000, -9999.000, -9999.000
  8520, -9999.000, -9999.000, -9999.000, -9999.000, -9999.000
  8580, -9999.000, -9999.000, -9999.000, -9999.000, -9999.000
  8640, -9999.000, -9999.000, -9999.000, -9999.000, -9999.000
  8700, -9999.000, -9999.000, -9999.000, -9999.000, -9999.000
  8760, -9999.000, -9999.000, -9999.000, -9999.000, -9999.000
  8820, -9999.000, -9999.000, -9999.000, -9999.000, -9999.000
  8880, -9999.000, -9999.000, -9999.000, -9999.000, -9999.000
  8940, -9999.000, -9999.000, -9999.000, -9999.000, -9999.000
  9000, -9999.000, -9999.000, -9999.000, -9999.000, -9999.000
  9060, -9999.000, -9999.000, -9999.000, -9999.000, -9999.000
  9120, -9999.000, -9999.000, -9999.000, -9999.000, -9999.000
  9180, -9999.000, -9999.000, -9999.000, -9999.000, -9999.000
  9240, -9999.000, -9999.000, -9999.000, -9999.000, -9999.000
  9300, -9999.000, -9999.000, -9999.000, -9999.000, -9999.000
  9360, -9999.000, -9999.000, -9999.000, -9999.000, -9999.000
  9420, -9999.000, -9999.000, -9999.000, -9999.000, -9999.000
  9480, -9999.000, -9999.000, -9999.000, -9999.000, -9999.000
  9540, -9999.000, -9999.000, -9999.000, -9999.000, -9999.000
  9600, -9999.000, -9999.000, -9999.000, -9999.000, -9999.000
  9660, -9999.000, -9999.000, -9999.000, -9999.000, -9999.000
  9720, -9999.000, -9999.000, -9999.000, -9999.000, -9999.000
  9780, -9999.000, -9999.000, -9999.000, -9999.000, -9999.000
  9840, -9999.000, -9999.000, -9999.000, -9999.000, -9999.000
  9900, -9999.000, -9999.000, -9999.000, -9999.000, -9999.000
  9960,  1.865, 15.520, 76.096,  6.179,  0.467
 10020,  1.898, 16.278, 78.782,  6.342,  0.577
 10080,  1.930, 16.579, 78.856,  6.589,  0.586
 10140,  1.891, 15.088, 77.100,  6.563,  0.495
 10200,  1.911, 15.955, 76.174,  6.593,  0.541
 10260,  1.944, 16.837, 74.178,  6.554,  0.593
 10320,  1.979, 16.935, 74.619,  6.313,  0.614
 10380,  1.949, 16.494, 74.666,  6.505,  0.724
 10440,  1.890, 15.435, 73.675,  6.532,  0.660
 10500,  1.868, 14.999, 71.668,  6.555,  0.585
 10560,  1.871, 15.283, 72.612,  6.460,  0.595
 10620,  1.884, 13.777, 70.190,  6.511,  0.515
 10680,  1.856, 14.487, 70.809,  6.569,  0.567
 10740,  1.891, 14.423, 69.104,  6.370,  0.605
 10800,  1.860, 14.202, 67.824,  6.529,  0.678
 10860,  1.785, 13.191, 66.893,  6.262,  0.671
 10920, -9999.000, -9999.000, -9999.000, -9999.000, -9999.000
 10980,  1.712, 13.933, 58.328,  6.100,  0.615
 11040,  1.805, 13.558, 60.015,  6.042,  0.673
 11100,  1.796, 12.853, 59.816,  6.238,  0.742
 11160,  1.772, 12.650, 57.635,  5.998,  0.686
 11220,  1.772, 12.423, 58.947,  5.834,  0.690
 11280,  1.763, 12.069, 56.902,  5.711,  0.683
 11340,  1.710, 11.983, 56.519,  5.758,  0.654
 11400,  1.729, 11.490, 55.911,  5.375,  0.669
 11460,  1.683, 11.015, 55.255,  5.315,  0.694
 11520,  1.725, 10.822, 53.588,  5.382,  0.720
 11580,  1.702, 10.540, 53.455,  5.245,  0.676
 11640,  1.676,  9.740, 50.557,  5.241,  0.652
 11700,  1.689,  9.557, 49.277,  5.148,  0.668
 11760,  1.675,  9.499, 49.984,  5.120,  0.646
 11820,  1.643,  8.904, 48.631,  5.077,  0.703
 11880,  1.614,  8.843, 47.378,  5.161,  0.720
 11940,  1.641,  9.089, 47.432,  5.025,  0.682
 12000,  1.629,  9.643, 46.180,  4.771,  0.664
 12060,  1.657,  9.723, 46.668,  4.852,  0.648
 12120,  1.652,  9.985, 43.922,  4.720,  0.661
 12180,  1.678,  9.255, 45.259,  4.924,  0.647
 12240,  1.663,  9.106, 44.277,  4.834,  0.631
 12300,  1.665,  8.497, 44.656,  5.012,  0.682
 12360,  1.632,  8.544, 42.430,  5.075,  0.686
 12420,  1.667,  8.366, 45.365,  5.229,  0.630
 12480,  1.648,  8.312, 44.207,  5.142,  0.566
 12540,  1.610,  7.711, 42.850,  5.013,  0.665
 12600,  1.637,  8.181, 44.902,  5.201,  0.706
 12660,  1.650,  8.026, 44.603,  5.091,  0.576
 12720,  1.618,  7.800, 44.581,  5.168,  0.583
 12780,  1.482,  7.537, 39.280,  4.919,  0.366
 12840,  1.593,  7.532, 42.993,  5.173,  0.524
 12900,  1.630,  7.836, 44.768,  5.047,  0.728
 12960,  1.571,  7.716, 43.608,  5.082,  0.601
 13020,  1.582,  7.907, 44.224,  5.240,  0.679
 13080,  1.620,  7.474, 42.435,  5.140,  0.707
 13140,  1.604,  7.377, 43.302,  5.262,  0.616
 13200,  1.566,  7.701, 41.597,  5.069,  0.709
 13260,  1.567,  7.530, 40.987,  5.174,  0.719
 13320,  1.600,  7.632, 40.215,  5.404,  0.625
 13380,  1.600,  7.222, 40.635,  5.141,  0.643
 13440,  1.610,  7.187, 41.106,  5.417,  0.763
 13500,  1.595,  7.385, 39.781,  5.182,  0.656
 13560,  1.643,  7.288, 39.821,  5.271,  0.685
 13620,  1.582,  7.459, 40.366,  5.312,  0.679
 13680,  1.585,  7.179, 40.342,  5.492,  0.655
 13740,  1.566,  7.277, 39.885,  5.640,  0.690
 13800,  1.578,  7.181, 39.581,  5.605,  0.702
 13860,  1.577,  7.201, 39.983,  5.344,  0.672
 13920,  1.631,  7.786, 39.760,  5.330,  0.670
 13980,  1.594,  7.408, 39.466,  5.396,  0.730
 14040,  1.619,  6.836, 37.265,  5.311,  0.640
 14100,  1.550,  6.803, 37.055,  5.318,  0.660
 14160,  1.552,  6.889, 38.779,  5.276,  0.665
 14220,  1.575,  7.511, 36.019,  5.139,  0.633
 14280,  1.584,  7.463, 37.020,  4.919,  0.618
 14340,  1.601,  7.440, 35.142,  5.142,  0.635
 14400,  1.533,  6.392, 34.831,  5.037,  0.698
 14460,  1.567,  6.542, 34.256,  5.032,  0.654
 14520,  1.619,  6.557, 36.824,  5.239,  0.707
 14580,  1.621,  6.231, 36.730,  4.577,  0.602
 14640,  1.369,  5.707, 29.107,  4.798,  0.497
 14700,  1.435,  5.697, 31.387,  4.720,  0.596
 14760,  1.561,  5.946, 31.764,  4.862,  0.686
 14820,  1.480,  5.943, 31.764,  4.867,  0.647
 14880,  1.506,  5.640, 33.184,  4.905,  0.602
 14940,  1.481,  5.507, 32.048,  4.815,  0.677
 15000,  1.505,  5.989, 32.209,  4.855,  0.601
 15060,  1.502,  5.649, 31.669,  4.700,  0.648
 15120,  1.503,  5.554, 31.269,  4.750,  0.641
 15180,  1.545,  5.708, 31.703,  4.580,  0.622
 15240,  1.491,  5.436, 30.824,  4.669,  0.678
 15300,  1.485,  5.840, 31.856,  4.851,  0.651
 15360,  1.513,  5.335, 30.853,  4.710,  0.607
 15420,  1.540,  5.581, 30.115,  5.036,  0.662
 15480,  1.519,  5.141, 30.977,  4.933,  0.757
 15540,  1.491,  5.272, 29.417,  4.919,  0.745
 15600,  1.482,  5.456, 29.087,  4.626,  0.692
 15660,  1.495,  4.928, 27.852,  4.586,  0.595
 15720,  1.500,  4.907, 28.529,  4.734,  0.642
 15780,  1.525,  5.082, 27.909,  4.808,  0.705
 15840,  1.515,  5.127, 27.608,  4.594,  0.650
 15900,  1.512,  4.648, 27.177,  4.719,  0.670
 15960,  1.533,  4.581, 26.179,  4.855,  0.654
 16020,  1.476,  4.429, 26.520,  4.843,  0.627
 16080,  1.490,  4.567, 26.824,  4.694,  0.636
 16140,  1.557,  4.386, 25.412,  4.772,  0.643
 16200,  1.505,  4.291, 26.276,  4.925,  0.702
 16260,  1.521,  4.146, 25.396,  4.706,  0.635
 16320,  1.538,  3.870, 25.219,  4.830,  0.636
 16380,  1.461,  4.017, 24.491,  4.996,  0.744
 16440,  1.479,  3.588, 24.530,  4.740,  0.589
 16500,  1.455,  3.796, 22.695,  4.585,  0.498
 16560,  1.534,  3.907, 23.143,  4.563,  0.635
 16620,  1.550,  4.350, 24.091,  4.850,  0.611
 16680,  1.528,  4.159, 25.339,  4.859,  0.523
 16740,  1.494,  4.058, 24.970,  5.031,  0.537
 16800,  1.542,  4.202, 24.788,  4.831,  0.482
 16860,  1.497,  4.185, 24.191,  4.736,  0.445
 16920,  1.461,  4.143, 24.174,  4.790,  0.561
 16980,  1.513,  4.103, 23.735,  4.779,  0.609
 17040,  1.581,  4.334, 25.185,  5.129,  0.584
 17100,  1.528,  4.176, 25.012,  4.799,  0.581
 17160,  1.564,  4.579, 24.674,  5.097,  0.559
 17220,  1.540,  4.570, 24.678,  5.072,  0.565
 17280,  1.550,  4.952, 27.086,  5.205,  0.649
 17340,  1.531,  5.148, 25.843,  4.731,  0.660
 17400,  1.557,  4.943, 27.289,  5.467,  0.597
 17460,  1.563,  5.325, 28.518,  5.532,  0.662
 17520,  1.558,  5.016, 27.429,  5.922,  0.698
 17580,  1.640,  5.225, 30.019,  5.861,  0.769
 17640,  1.584,  5.183, 28.200,  5.728,  0.700
 17700,  1.569,  5.403, 30.022,  5.892,  0.769
 17760,  1.572,  5.385, 29.886,  5.640,  0.749
 17820,  1.576,  5.561, 29.343,  5.881,  0.739
 17880,  1.562,  5.431, 29.943,  6.081,  0.703
 17940,  1.572,  5.459, 30.334,  6.102,  0.817
 18000,  1.603,  5.536, 31.250,  5.899,  0.799
 18060,  1.569,  5.793, 32.672,  6.300,  0.806
 18120,  1.616,  5.607, 32.489,  6.481,  0.842
 18180,  1.608,  5.796, 33.804,  6.772,  0.844
 18240,  1.681,  6.583, 35.829,  6.845,  0.861
 18300, -9999.000, -9999.000, -9999.000, -9999.000, -9999.000
 18360,  1.578,  5.945, 29.030,  5.768,  0.660
 18420,  1.633,  5.933, 30.464,  6.224,  0.756
 18480,  1.598,  6.105, 30.888,  6.263,  0.765
 18540,  1.617,  6.342, 32.122,  6.075,  0.782
 18600,  1.639,  5.822, 30.374,  5.972,  0.715
 18660,  1.627,  5.610, 30.403,  5.906,  0.728
 18720,  1.634,  5.668, 31.155,  5.969,  0.713
 18780,  1.636,  5.448, 30.594,  5.982,  0.680
 18840,  1.669,  5.580, 31.021,  5.943,  0.705
 18900,  1.662,  5.604, 30.955,  5.823,  0.664
 18960,  1.665,  5.352, 28.921,  5.717,  0.638
 19020,  1.636,  5.396, 29.315,  5.715,  0.659
 19080,  1.651,  5.484, 29.738,  5.674,  0.669
 19140,  1.599,  5.268, 29.504,  5.565,  0.651
 19200,  1.608,  5.505, 27.966,  5.712,  0.608
 19260,  1.674,  5.389, 29.085,  5.691,  0.643
 19320,  1.615,  5.382, 31.056,  5.913,  0.663
 19380,  1.605,  5.422, 29.947,  5.739,  0.675
 19440,  1.645,  5.198, 28.688,  5.667,  0.689
 19500,  1.633,  5.470, 28.397,  5.595,  0.610
 19560,  1.656,  5.214, 28.413,  5.518,  0.640
 19620,  1.627,  5.285, 29.109,  5.645,  0.655
 19680,  1.639,  5.095, 27.668,  5.760,  0.682
 19740,  1.655,  5.008, 27.169,  5.504,  0.635
 19800,  1.656,  5.358, 28.843,  5.749,  0.715
 19860,  1.648,  5.013, 27.378,  5.735,  0.743
 19920,  1.619,  4.940, 26.797,  5.555,  0.625
 19980,  1.598,  5.029, 26.193,  5.412,  0.681
 20040,  1.562,  4.813, 25.731,  5.385,  0.710
 20100,  1.595,  4.715, 26.188,  5.241,  0.760
 20160, -9999.000, -9999.000, -9999.000, -9999.000, -9999.000
 20220,  1.505,  4.588, 23.971,  5.182,  0.826
 20280,  1.555,  4.894, 26.971,  5.468,  0.804
 20340,  1.596,  4.778, 24.352,  5.431,  0.751
 20400,  1.538,  4.658, 24.972,  5.312,  0.720
 20460,  1.528,  4.641, 24.148,  5.451,  0.872
 20520,  1.567,  4.406, 23.360,  5.408,  0.804
 20580,  1.619,  4.878, 24.607,  5.525,  0.804
 20640,  1.620,  4.251, 22.039,  5.493,  0.893
 20700,  1.633,  4.291, 22.904,  5.791,  0.932
 20760,  1.667,  4.359, 23.955,  5.783,  0.867
 20820,  1.721,  4.563, 23.153,  5.927,  0.855
 20880,  1.659,  4.472, 24.263,  5.680,  0.940
 20940,  1.642,  4.749, 23.140,  5.212,  0.908
 21000,  1.569,  4.467, 22.049,  5.349,  0.986
 21060,  1.599,  4.778, 22.418,  5.541,  0.914
 21120,  1.638,  4.500, 23.447,  5.683,  0.973
 21180,  1.694,  4.547, 22.630,  5.903,  1.035
 21240,  1.675,  4.616, 23.542,  5.640,  0.933
 21300,  1.617,  4.413, 22.552,  5.549,  0.973
 21360,  1.613,  4.275, 21.524,  5.769,  1.004
 21420,  1.643,  4.273, 22.682,  5.791,  1.113
 21480,  1.617,  4.339, 21.641,  5.603,  0.973
 21540,  1.644,  4.173, 21.061,  5.749,  1.076
 21600,  1.674,  4.317, 23.059,  5.542,  1.088
 21660,  1.635,  4.073, 21.704,  5.451,  1.041
 21720,  1.624,  4.241, 21.826,  5.358,  1.029
 21780,  1.630,  4.231, 21.452,  5.407,  1.092
 21840,  1.591,  3.971, 20.930,  5.066,  1.078
 21900,  1.615,  4.091, 21.109,  5.429,  1.112
 21960,  1.611,  3.996, 19.923,  5.476,  1.267
 22020, -9999.000, -9999.000, -9999.000, -9999.000, -9999.000
 22080,  1.571,  3.994, 18.291,  5.548,  1.313
 22140,  1.638,  4.104, 19.233,  5.501,  1.435
 22200,  1.575,  3.773, 19.446,  5.561,  1.399
 22260,  1.642,  3.906, 20.169,  5.973,  1.599
 22320,  1.662,  3.848, 18.468,  5.996,  1.562
 22380,  1.701,  3.930, 19.194,  6.188,  1.611
 22440,  1.652,  4.335, 21.593,  6.166,  1.609
 22500,  1.648,  4.101, 21.029,  5.769,  1.593
 22560,  1.627,  4.113, 20.019,  5.755,  1.512
 22620,  1.686,  4.218, 20.975,  5.777,  1.643
 22680,  1.649,  4.171, 20.451,  5.956,  1.705
 22740,  1.610,  3.866, 20.049,  5.603,  1.544
 22800,  1.583,  4.159, 20.291,  5.583,  1.482
 22860,  1.654,  4.088, 20.804,  6.071,  1.570
 22920,  1.647,  4.090, 21.721,  6.013,  1.661
 22980,  1.663,  4.402, 21.574,  6.349,  1.709
 23040,  1.572,  4.135, 20.454,  5.750,  1.548
 23100,  1.637,  3.910, 20.354,  5.622,  1.525
 23160,  1.715,  4.460, 20.138,  6.038,  1.514
 23220,  1.838,  4.881, 22.380,  6.998,  1.702
 23280,  1.705,  4.342, 21.473,  6.008,  1.462
 23340,  1.755,  4.610, 21.250,  6.576,  1.594
 23400,  1.740,  4.196, 20.610,  6.590,  1.580
 23460,  1.728,  4.465, 20.911,  6.517,  1.573
 23520,  1.804,  4.383, 21.091,  6.683,  1.622
 23580,  1.802,  4.088, 20.622,  6.623,  1.670
 23640,  1.814,  4.231, 21.623,  7.158,  1.674
 23700,  1.752,  4.201, 21.038,  6.630,  1.617
 23760,  1.790,  4.026, 21.005,  6.424,  1.658
 23820,  1.816,  4.270, 22.252,  6.298,  1.714
 23880,  1.684,  3.804, 18.367,  6.257,  1.551
 23940,  1.689,  3.816, 18.353,  6.198,  1.573
 24000,  1.705,  4.006, 19.798,  6.098,  1.508
 24060,  1.715,  4.061, 18.940,  6.170,  1.530
 24120,  1.752,  4.196, 19.460,  6.606,  1.639
 24180,  1.818,  4.285, 18.995,  6.774,  1.738
 24240,  1.900,  4.422, 20.067,  7.234,  1.681
 24300,  1.844,  4.228, 19.243,  7.019,  1.657
 24360,  1.849,  4.160, 20.455,  6.599,  1.735
 24420,  1.808,  4.651, 20.066,  6.676,  1.602
 24480,  1.821,  4.510, 19.414,  6.755,  1.746
 24540,  1.900,  4.679, 20.382,  7.372,  1.739
 24600,  1.981,  5.528, 20.376,  7.998,  1.861
 24660,  2.000,  5.816, 21.394,  8.307,  2.148
 24720,  1.999,  5.637, 22.086,  8.359,  2.050
 24780,  2.008,  5.452, 22.178,  8.481,  2.111
 24840,  1.989,  5.765, 21.388,  8.165,  1.930
 24900,  1.993,  5.524, 20.910,  8.016,  1.999
 24960,  2.011,  5.645, 22.304,  8.186,  1.784
 25020,  2.010,  5.773, 22.046,  8.442,  1.923
 25080,  2.062,  5.934, 22.867,  8.853,  1.864
 25140,  2.020,  5.585, 21.775,  8.471,  1.816
 25200,  2.084,  5.548, 22.021,  8.617,  1.587
 25260,  2.106,  5.622, 22.605,  8.802,  1.632
 25320,  2.115,  5.715, 22.713,  8.323,  1.644
 25380,  2.023,  5.653, 22.396,  7.922,  1.488
 25440,  2.075,  5.929, 22.654,  8.145,  1.644
 25500,  2.089,  5.950, 22.090,  8.215,  1.646
 25560,  2.100,  6.098, 21.899,  8.270,  1.619
 25620,  2.083,  6.439, 22.470,  8.542,  1.774
 25680, -9999.000, -9999.000, -9999.000, -9999.000, -9999.000
 25740,  1.996,  5.784, 18.916,  7.518,  1.533
 25800,  2.085,  6.183, 20.510,  8.147,  1.544
 25860,  1.989,  5.989, 21.005,  8.072,  1.576
 25920,  2.092,  6.192, 21.028,  8.679,  1.745
 25980,  2.204,  6.516, 22.897,  9.574,  2.005
 26040,  2.144,  6.344, 22.117,  8.968,  1.908
 26100,  2.173,  6.540, 21.902,  9.211,  1.964
 26160,  2.163,  6.825, 22.163,  9.505,  2.075
 26220,  2.061,  6.325, 22.010,  8.908,  2.080
 26280,  2.160,  6.744, 22.684,  9.557,  2.244
 26340,  2.194,  6.736, 21.695,  9.743,  2.259
 26400,  2.227,  6.520, 23.108,  9.676,  2.100
 26460,  2.193,  6.448, 23.421,  9.715,  2.033
 26520,  2.270,  6.836, 22.892,  9.957,  2.197
 26580,  2.249,  6.572, 22.927,  9.312,  2.022
 26640,  2.187,  6.547, 22.186,  8.924,  1.788
 26700,  2.291,  6.434, 22.540,  9.141,  1.967
 26760,  2.190,  6.036, 22.721,  9.063,  1.908
 26820,  2.154,  6.111, 21.712,  8.147,  1.899
 26880,  2.175,  6.185, 22.255,  8.142,  1.853
 26940,  2.190,  6.161, 22.683,  8.334,  1.934
 27000,  2.093,  5.969, 20.475,  7.742,  1.769
 27060,  2.069,  5.575, 19.383,  7.704,  1.914
 27120,  2.062,  5.584, 21.748,  7.933,  2.042
 27180,  2.072,  5.739, 22.017,  7.971,  2.119
 27240,  2.063,  5.270, 19.941,  7.794,  2.063
 27300,  2.037,  5.406, 21.317,  7.914,  2.178
 27360,  2.043,  5.328, 20.127,  7.636,  1.847
 27420,  2.011,  5.569, 19.142,  7.319,  1.931
 27480,  2.018,  5.396, 19.750,  7.237,  1.935
 27540, -9999.000, -9999.000, -9999.000, -9999.000, -9999.000
 27600,  1.925,  5.011, 17.917,  6.804,  1.704
 27660,  1.939,  4.999, 18.870,  7.104,  1.846
 27720,  1.969,  4.889, 18.586,  6.835,  1.842
 27780,  1.975,  4.819, 19.327,  6.346,  1.835
 27840,  1.939,  4.706, 19.184,  6.394,  1.764
 27900,  1.856,  4.646, 17.942,  6.292,  1.856
 27960,  1.889,  4.785, 18.041,  6.358,  1.799
 28020,  1.901,  4.527, 17.523,  6.461,  1.716
 28080,  1.874,  4.601, 17.243,  6.100,  1.701
 28140,  1.969,  5.094, 17.723,  6.484,  1.686
 28200,  2.001,  5.211, 19.092,  6.991,  1.450
 28260,  2.029,  5.173, 19.121,  7.073,  1.477
 28320,  2.081,  5.212, 18.216,  6.692,  1.427
 28380,  2.114,  5.111, 18.919,  6.994,  1.506
 28440,  2.303,  5.753, 21.388,  7.713,  1.503
 28500,  2.353,  5.742, 22.518,  8.217,  1.472
 28560,  2.490,  6.267, 23.395,  9.027,  1.553
 28620,  2.204,  5.509, 21.611,  7.573,  1.568
 28680,  2.238,  5.774, 20.074,  8.127,  1.717
 28740,  2.296,  5.493, 21.018,  8.923,  1.760
 28800,  2.285,  6.104, 22.325,  8.990,  1.715
 28860,  2.392,  6.519, 22.975,  9.400,  1.682
 28920,  2.904,  7.537, 29.000, 11.214,  1.448
 28980,  3.097,  7.552, 33.617, 11.714,  1.285
 29040,  3.246,  7.817, 38.456, 12.219,  1.133
 29100,  3.379,  7.891, 41.257, 12.290,  1.057
 29160,  2.694,  6.509, 32.769, 10.086,  1.512
 29220,  2.590,  6.242, 30.293,  9.547,  1.649
 29280,  2.550,  6.350, 28.388,  9.572,  1.518
 29340,  2.493,  5.992, 26.889,  9.065,  1.606
 29400, -9999.000, -9999.000, -9999.000, -9999.000, -9999.000
 29460,  2.424,  5.530, 24.478,  8.687,  1.476
 29520,  2.388,  5.300, 24.699,  8.766,  1.593
 29580,  2.123,  4.956, 21.770,  7.513,  1.579
 29640,  2.062,  4.689, 19.856,  7.214,  1.612
 29700,  2.100,  4.589, 18.293,  7.691,  1.754
 29760,  2.272,  4.659, 20.009,  8.235,  1.761
 29820,  2.145,  4.654, 19.762,  7.720,  1.786
 29880,  2.296,  4.728, 18.004,  8.826,  1.947
 29940,  2.263,  4.788, 18.847,  8.572,  2.096
 30000,  2.193,  4.754, 17.760,  8.081,  1.982
 30060,  2.189,  4.488, 18.127,  8.199,  2.057
 30120,  2.277,  4.536, 17.859,  8.269,  2.105
 30180,  2.342,  4.640, 18.290,  9.181,  2.035
 30240,  2.451,  4.649, 18.526,  9.203,  2.186
 30300,  2.312,  4.574, 18.352,  8.835,  2.177
 30360,  2.371,  4.653, 18.767,  8.876,  2.148
 30420,  2.288,  4.500, 17.457,  8.455,  2.080
 30480,  2.261,  4.511, 19.205,  8.476,  2.185
 30540,  2.443,  4.572, 19.293,  9.131,  2.231
 30600,  2.398,  4.425, 18.053,  8.851,  2.109
 30660,  2.378,  4.519, 18.390,  8.781,  2.310
 30720,  2.325,  4.313, 19.418,  8.311,  2.214
 30780,  2.334,  4.548, 19.119,  8.180,  2.279
 30840,  2.247,  4.288, 18.992,  7.835,  2.137
 30900,  2.236,  4.341, 19.615,  7.746,  2.349
 30960,  2.198,  4.013, 17.354,  7.674,  2.196
 31020,  2.129,  4.108, 18.094,  7.163,  2.075
 31080,  2.174,  4.085, 19.224,  7.262,  2.245
 31140,  2.345,  4.469, 19.334,  8.361,  2.368
 31200,  2.470,  4.639, 20.213,  8.691,  2.338
 31260,  2.180,  4.197, 18.800,  7.303,  1.934
 31320,  2.328,  4.254, 18.196,  8.124,  2.016
 31380,  2.573,  4.708, 19.150,  9.580,  2.239
 31440,  2.610,  5.010, 21.766,  9.893,  2.445
 31500,  2.615,  5.149, 21.215,  9.653,  2.405
 31560,  2.586,  4.868, 20.752,  9.558,  2.368
 31620,  2.557,  4.645, 20.413,  9.154,  2.229
 31680,  2.521,  4.842, 22.039,  9.353,  2.285
 31740,  2.648,  4.901, 21.953,  9.704,  2.317
 31800,  2.614,  4.822, 22.387, 10.156,  2.554
 31860,  2.721,  5.051, 22.667, 10.602,  2.447
 31920,  2.674,  4.901, 22.121, 10.052,  2.278
 31980,  2.636,  4.834, 21.416,  9.925,  2.277
 32040,  2.689,  5.387, 22.857, 10.269,  2.357
 32100,  2.847,  5.511, 24.382, 11.028,  2.392
 32160,  2.899,  5.391, 26.184, 11.507,  2.300
 32220,  2.760,  5.082, 25.558, 10.540,  2.241
 32280,  2.523,  4.590, 22.063,  9.490,  2.012
 32340,  2.584,  4.622, 22.329,  9.811,  2.085
 32400,  2.725,  5.214, 25.087, 10.431,  2.277
 32460,  2.698,  5.025, 24.364, 10.098,  2.212
 32520,  2.669,  4.713, 23.096, 10.189,  2.244
 32580,  2.700,  5.088, 23.788, 10.032,  2.371
 32640,  2.691,  4.980, 21.829,  9.660,  2.165
 32700,  2.776,  4.814, 23.125, 10.173,  2.082
 32760,  2.718,  5.347, 24.058,  9.914,  2.103
 32820,  2.739,  5.162, 23.667,  9.997,  2.073
 32880,  2.811,  4.893, 22.792,  9.954,  2.021
 32940,  2.744,  5.037, 23.904,  9.956,  2.208
 33000,  2.687,  4.593, 23.208,  9.648,  2.174
 33060,  2.817,  5.616, 25.818, 10.234,  2.731
 33120,  2.538,  4.636, 20.843,  8.470,  2.123
 33180,  2.644,  4.734, 21.406,  8.966,  2.036
 33240,  2.625,  5.172, 22.721,  9.250,  2.140
 33300,  2.714,  5.366, 23.936,  9.471,  2.179
 33360,  2.785,  5.066, 23.143,  9.794,  2.231
 33420,  2.862,  5.198, 24.452,  9.907,  2.384
 33480,  2.882,  5.739, 25.637,  9.937,  2.314
 33540,  2.910,  5.692, 25.902, 10.090,  2.363
 33600,  2.891,  5.524, 25.565,  9.944,  2.339
 33660,  2.876,  5.793, 25.799,  9.901,  2.223
 33720,  2.789,  5.515, 24.991,  9.959,  2.398
 33780,  2.821,  5.466, 24.673,  9.585,  2.342
 33840,  2.774,  5.397, 25.270,  9.049,  2.396
 33900,  2.808,  5.128, 24.689,  9.453,  2.395
 33960,  2.796,  5.445, 25.512,  9.250,  2.389
 34020,  2.804,  5.245, 25.188,  9.026,  2.300
 34080,  2.773,  5.097, 24.151,  8.926,  2.382
 34140,  2.720,  5.149, 25.369,  8.797,  2.308
 34200,  2.742,  4.998, 25.101,  8.925,  2.353
 34260,  2.736,  5.309, 24.134,  9.016,  2.297
 34320,  2.900,  5.145, 26.281,  9.198,  2.393
 34380,  2.963,  5.430, 26.316,  9.551,  2.481
 34440,  3.015,  5.318, 25.523,  9.658,  2.501
 34500,  2.893,  5.354, 26.190,  9.446,  2.346
 34560,  2.858,  5.219, 25.712,  9.167,  2.281
 34620,  2.878,  5.387, 25.561,  9.351,  2.383
 34680,  2.868,  5.565, 26.825,  9.565,  2.410
 34740,  2.961,  5.512, 26.958,  9.545,  2.363
 34800,  2.919,  5.235, 25.839,  8.996,  2.388
 34860,  2.997,  5.443, 26.122,  9.422,  2.271
 34920,  3.037,  4.880, 26.185,  9.351,  2.222
 34980,  2.804,  5.302, 23.510,  8.452,  2.085
 35040,  2.797,  5.223, 25.055,  8.459,  2.183
 35100,  2.854,  5.164, 25.828,  8.750,  2.262
 35160,  2.892,  5.137, 25.207,  8.885,  2.249
 35220,  2.915,  5.344, 26.410,  8.980,  2.350
 35280,  2.868,  5.095, 24.891,  8.734,  2.355
 35340,  2.873,  5.068, 25.350,  8.574,  2.422
 35400,  2.966,  5.484, 26.512,  9.059,  2.513
 35460,  2.905,  5.227, 25.628,  9.046,  2.523
 35520,  2.947,  5.135, 26.065,  8.933,  2.502
 35580,  3.112,  5.665, 26.892, 10.481,  2.431
 35640,  3.043,  5.430, 25.223, 10.025,  2.332
 35700,  2.824,  4.893, 25.592,  8.735,  2.327
 35760,  2.936,  5.397, 26.704,  8.796,  2.395
 35820,  2.922,  5.004, 25.419,  8.553,  2.346
 35880,  2.872,  4.949, 26.224,  8.330,  2.327
 35940,  2.897,  5.047, 25.990,  8.388,  2.562
 36000,  2.873,  4.913, 24.449,  8.615,  2.434
 36060,  3.012,  4.880, 24.612,  9.350,  2.455
 36120,  3.000,  5.146, 27.424,  9.305,  2.635
 36180,  3.004,  5.128, 27.283,  9.095,  2.418
 36240,  3.054,  5.075, 25.805,  9.891,  2.532
 36300,  3.046,  5.602, 26.819,  9.978,  2.513
 36360,  3.024,  5.129, 26.251,  9.485,  2.342
 36420,  2.957,  5.109, 25.491,  9.004,  2.510
 36480,  2.893,  4.982, 26.891,  8.654,  2.409
 36540,  2.979,  5.003, 27.722,  8.961,  2.389
 36600,  3.008,  4.930, 26.356,  9.130,  2.474
 36660,  3.032,  5.003, 26.511,  9.236,  2.512
 36720,  3.065,  4.929, 26.695,  9.185,  2.433
 36780, -9999.000, -9999.000, -9999.000, -9999.000, -9999.000
 36840,  2.964,  5.403, 25.181,  9.521,  2.662
 36900,  2.965,  5.071, 24.850,  9.178,  2.558
 36960,  3.067,  4.920, 25.323,  9.616,  2.563
 37020,  3.106,  5.335, 26.705, 10.128,  2.765
 37080,  3.218,  5.837, 25.572, 11.178,  2.763
 37140,  3.122,  5.129, 25.501, 10.606,  2.954
 37200,  3.094,  4.995, 27.187, 10.454,  2.790
 37260,  3.074,  5.082, 26.652, 10.069,  2.589
 37320,  3.056,  5.105, 25.754, 10.234,  2.652
 37380,  3.115,  5.293, 27.123, 10.282,  2.757
 37440,  3.125,  5.259, 24.632, 10.360,  2.709
 37500,  3.187,  5.180, 26.351, 10.662,  2.725
 37560,  3.225,  5.218, 26.871, 11.126,  2.750
 37620,  3.356,  5.979, 26.840, 12.044,  2.760
 37680,  3.350,  5.818, 26.906, 12.440,  2.765
 37740,  3.336,  5.843, 26.746, 12.366,  2.666
 37800,  3.381,  5.807, 26.771, 11.756,  2.724
 37860,  3.321,  5.474, 26.048, 11.738,  2.549
 37920,  3.287,  5.592, 27.475, 11.845,  2.615
 37980,  3.300,  5.524, 27.063, 11.608,  2.531
 38040,  3.406,  5.382, 26.987, 11.959,  2.695
 38100,  3.335,  5.685, 27.161, 11.558,  2.703
 38160,  3.287,  5.462, 26.413, 11.042,  2.570
 38220,  3.297,  5.389, 26.681, 10.519,  2.625
 38280,  3.278,  5.462, 26.578, 10.335,  2.594
 38340,  3.309,  5.454, 26.870, 10.166,  2.605
 38400,  3.272,  5.347, 27.238,  9.840,  2.641
 38460,  3.349,  5.575, 27.150, 10.329,  2.722
 38520,  3.233,  5.283, 26.427,  9.997,  2.684
 38580,  3.370,  5.245, 26.579, 10.078,  2.764
 38640, -9999.000, -9999.000, -9999.000, -9999.000, -9999.000
 38700,  3.210,  5.152, 24.225,  9.554,  2.349
 38760,  3.349,  5.659, 26.980, 10.292,  2.622
 38820,  3.346,  5.153, 26.573, 10.282,  2.532
 38880,  3.397,  5.567, 26.890, 10.465,  2.684
 38940,  3.385,  5.420, 26.869,  9.956,  2.667
 39000,  3.338,  5.408, 26.801, 10.114,  2.586
 39060,  3.418,  5.339, 26.275, 10.198,  2.549
 39120,  3.473,  5.600, 28.113, 10.649,  2.611
 39180,  3.370,  5.287, 28.313, 10.168,  2.604
 39240,  3.328,  4.842, 26.590,  9.853,  2.578
 39300,  3.341,  5.194, 26.444, 10.111,  2.469
 39360,  3.343,  5.421, 26.227, 10.282,  2.527
 39420,  3.328,  5.228, 26.041, 10.277,  2.498
 39480,  3.359,  5.277, 26.881, 10.472,  2.572
 39540,  3.418,  5.405, 27.388, 10.793,  2.712
 39600,  3.449,  5.342, 26.855, 11.086,  2.616
 39660,  3.497,  5.359, 26.927, 10.789,  2.543
 39720,  3.450,  5.358, 25.769, 10.490,  2.419
 39780,  3.467,  5.324, 26.553, 10.515,  2.339
 39840,  3.483,  5.638, 26.843, 10.916,  2.365
 39900,  3.452,  5.516, 26.963, 10.730,  2.436
 39960,  3.523,  5.362, 26.949, 11.251,  2.488
 40020,  3.497,  5.363, 26.728, 11.504,  2.494
 40080,  3.555,  5.332, 26.306, 12.097,  2.366
 40140,  3.634,  5.613, 26.667, 11.936,  2.438
 40200,  3.573,  5.715, 27.872, 11.923,  2.375
 40260,  3.609,  5.651, 27.142, 12.446,  2.501
 40320,  3.622,  5.664, 27.112, 12.474,  2.437
 40380,  3.688,  5.365, 26.968, 12.396,  2.606
 40440,  3.662,  5.247, 27.153, 12.375,  2.310
 40500, -9999.000, -9999.000, -9999.000, -9999.000, -9999.000
 40560,  3.505,  5.432, 24.534, 11.424,  2.153
 40620,  3.591,  5.588, 24.917, 12.368,  2.277
 40680,  3.672,  5.718, 25.483, 12.291,  2.294
 40740,  3.641,  5.745, 26.391, 12.163,  2.269
 40800,  3.656,  5.277, 25.748, 12.275,  2.250
 40860,  3.692,  5.577, 25.146, 11.949,  2.258
 40920,  3.670,  5.245, 27.048, 11.892,  2.284
 40980,  3.661,  5.685, 27.608, 12.234,  2.350
 41040,  3.753,  5.562, 26.723, 11.988,  2.285
 41100,  3.769,  5.226, 27.058, 11.735,  2.252
 41160,  3.727,  5.401, 27.127, 11.704,  2.330
 41220,  3.717,  5.311, 25.952, 11.813,  2.167
 41280,  3.701,  5.565, 27.772, 11.543,  2.140
 41340,  3.800,  5.493, 27.300, 11.922,  2.141
 41400,  3.802,  5.315, 27.453, 12.109,  2.024
 41460,  3.906,  5.254, 27.469, 12.472,  2.068
 41520,  3.848,  5.618, 27.644, 12.104,  2.000
 41580,  3.916,  5.228, 27.019, 12.078,  1.908
 41640,  3.927,  5.234, 28.361, 12.504,  1.948
 41700,  4.008,  5.225, 28.745, 12.532,  2.005
 41760,  4.050,  5.557, 29.753, 12.742,  1.788
 41820,  4.001,  5.200, 28.528, 12.304,  1.831
 41880,  3.992,  5.322, 27.999, 12.556,  1.775
 41940,  4.100,  5.320, 27.459, 12.557,  1.782
 42000,  4.045,  5.619, 28.922, 12.715,  1.720
 42060,  3.980,  5.452, 29.236, 12.416,  1.834
 42120,  4.026,  5.602, 29.190, 12.933,  1.812
 42180,  4.007,  5.407, 28.930, 12.636,  1.889
 42240,  4.041,  5.600, 28.674, 12.468,  1.910
 42300,  4.162,  5.457, 27.731, 12.720,  1.831
 42360,  3.935,  5.309, 25.414, 11.996,  1.530
 42420,  3.989,  5.193, 27.592, 12.449,  1.815
 42480,  4.011,  5.435, 28.797, 12.221,  1.856
 42540,  3.990,  5.361, 28.968, 12.313,  1.873
 42600,  4.088,  5.271, 28.044, 12.431,  1.760
 42660,  4.073,  5.342, 29.163, 12.467,  1.861
 42720,  4.004,  5.215, 28.239, 12.330,  1.702
 42780,  4.015,  5.273, 28.225, 12.118,  1.680
 42840,  3.944,  5.560, 28.880, 11.832,  1.829
 42900,  3.923,  5.116, 28.559, 11.923,  1.839
 42960,  4.066,  5.312, 27.462, 12.447,  1.674
 43020,  4.136,  5.221, 28.790, 13.120,  1.680
 43080,  4.036,  5.157, 29.454, 12.690,  1.694
 43140,  3.881,  5.049, 29.295, 11.718,  1.842
 43200,  3.835,  5.020, 29.275, 11.799,  1.925
 43260,  3.948,  5.157, 28.762, 11.735,  1.894
 43320,  3.842,  5.255, 27.885, 11.081,  1.742
 43380,  3.839,  5.504, 26.946, 11.273,  1.869
 43440,  3.873,  5.062, 27.127, 11.538,  1.978
 43500,  3.798,  5.091, 27.544, 11.357,  1.932
 43560,  3.929,  5.246, 27.995, 11.283,  1.947
 43620,  3.863,  5.350, 27.989, 11.374,  1.889
 43680,  3.786,  4.911, 26.197, 11.024,  1.799
 43740,  3.785,  4.906, 25.681, 10.961,  1.768
 43800,  3.779,  4.949, 27.352, 10.993,  1.798
 43860,  3.820,  5.124, 27.844, 11.069,  1.929
 43920,  3.784,  4.984, 26.344, 11.261,  1.641
 43980,  3.765,  5.112, 25.686, 10.913,  1.766
 44040,  3.779,  5.107, 26.667, 10.985,  1.687
 44100,  3.835,  5.201, 26.291, 11.056,  1.595
 44160, -9999.000, -9999.000, -9999.000, -9999.000, -9999.000
 44220,  3.616,  4.769, 24.196, 10.228,  1.784
 44280,  3.745,  4.789, 24.927, 10.695,  1.616
 44340,  3.611,  4.932, 25.348, 10.314,  1.747
 44400,  3.747,  4.964, 25.050, 10.735,  1.732
 44460,  3.753,  4.880, 25.157, 10.595,  1.743
 44520,  3.866,  5.035, 26.131, 11.098,  1.767
 44580,  3.908,  5.367, 28.012, 11.698,  1.774
 44640,  4.025,  5.339, 28.565, 11.752,  1.975
 44700,  4.121,  5.713, 28.585, 12.078,  1.834
 44760,  4.007,  5.177, 28.079, 11.580,  1.836
 44820,  3.917,  5.349, 28.667, 11.368,  1.911
 44880,  4.067,  5.768, 30.009, 11.854,  1.726
 44940,  4.023,  6.064, 31.347, 11.880,  1.994
 45000,  4.066,  5.562, 30.401, 12.144,  1.742
 45060,  3.999,  5.614, 31.097, 12.092,  1.783
 45120,  3.944,  5.302, 30.355, 11.043,  1.761
 45180,  3.913,  5.677, 29.813, 11.004,  1.820
 45240,  3.830,  5.252, 29.566, 10.705,  1.957
 45300,  3.807,  5.330, 29.421, 10.777,  1.901
 45360,  3.790,  5.563, 28.041, 10.546,  1.808
 45420,  3.795,  5.492, 27.896, 10.632,  1.886
 45480,  3.746,  5.315, 28.364, 10.171,  1.871
 45540,  3.729,  5.410, 28.715, 10.260,  1.840
 45600,  3.861,  5.511, 28.039, 10.365,  1.927
 45660,  3.876,  5.697, 27.977, 10.514,  1.895
 45720,  4.001,  5.856, 29.749, 11.390,  1.921
 45780,  3.940,  5.628, 29.017, 10.723,  1.876
 45840,  3.872,  5.523, 29.440, 10.883,  1.984
 45900,  3.893,  5.547, 29.889, 10.439,  1.954
 45960,  3.961,  5.650, 28.900, 10.933,  1.928
 46020, -9999.000, -9999.000, -9999.000, -9999.000, -9999.000
 46080,  3.656,  5.294, 26.918, 10.082,  1.799
 46140,  3.831,  5.184, 27.634, 10.324,  1.831
 46200,  3.807,  5.369, 28.405, 10.148,  1.920
 46260,  3.777,  5.184, 28.223, 10.043,  1.955
 46320,  3.802,  5.057, 27.416, 10.032,  1.909
 46380,  3.863,  4.966, 26.947,  9.818,  1.735
 46440,  3.817,  5.106, 27.723,  9.868,  1.844
 46500,  3.797,  5.024, 27.775,  9.721,  1.868
 46560,  3.674,  4.764, 26.429,  9.543,  1.776
 46620,  3.724,  5.244, 26.735,  9.829,  1.912
 46680,  3.915,  5.162, 26.693, 10.145,  1.823
 46740,  3.873,  4.870, 26.758, 10.118,  1.949
 46800,  3.934,  5.140, 28.090, 10.388,  1.976
 46860,  4.188,  6.336, 31.637, 11.473,  2.592
 46920,  4.444,  7.609, 33.080, 12.551,  2.875
 46980,  4.352,  6.776, 32.085, 11.941,  2.627
 47040,  4.313,  6.646, 32.113, 12.126,  2.772
 47100,  4.093,  6.361, 29.901, 11.258,  2.365
 47160,  4.069,  6.177, 30.776, 10.930,  2.210
 47220,  4.087,  5.793, 30.476, 11.021,  2.268
 47280,  4.046,  5.792, 29.434, 10.710,  2.032
 47340,  4.022,  5.544, 30.185, 10.530,  2.096
 47400,  4.060,  5.440, 27.766, 10.798,  1.988
 47460,  4.041,  5.635, 28.534, 10.330,  1.986
 47520,  3.932,  5.595, 28.801, 10.014,  1.930
 47580,  3.980,  5.457, 28.552, 10.222,  1.980
 47640,  3.892,  5.477, 27.979, 10.236,  1.896
 47700,  3.901,  5.435, 28.038,  9.927,  1.786
 47760,  3.919,  5.180, 27.891, 10.029,  1.724
 47820,  3.976,  5.692, 27.655, 10.058,  1.844
 47880, -9999.000, -9999.000, -9999.000, -9999.000, -9999.000
 47940,  3.873,  5.277, 25.183,  9.196,  1.598
 48000,  3.840,  5.001, 25.589,  9.884,  1.692
 48060,  3.944,  5.291, 25.922,  9.986,  1.790
 48120,  3.960,  4.905, 26.520,  9.731,  1.629
 48180,  3.934,  5.117, 25.016,  9.518,  1.671
 48240,  3.946,  5.233, 27.513,  9.677,  1.717
 48300,  3.893,  5.304, 26.994,  9.536,  1.563
 48360,  3.982,  5.291, 25.905,  9.736,  1.580
 48420,  3.969,  5.582, 25.528,  9.420,  1.591
 48480,  4.123,  5.140, 26.271,  9.952,  1.679
 48540,  4.148,  5.589, 25.636,  9.942,  1.710
 48600,  4.088,  5.143, 25.935,  9.843,  1.822
 48660,  4.040,  5.485, 26.251,  9.839,  1.778
 48720,  3.946,  4.995, 24.898,  9.557,  1.584
 48780,  4.273,  5.085, 24.437, 10.150,  1.729
 48840,  4.505,  5.331, 24.090, 10.383,  2.170
 48900,  4.568,  5.059, 22.680, 10.729,  1.965
 48960,  4.681,  5.513, 24.874, 10.820,  2.259
 49020,  4.664,  5.795, 24.201, 10.741,  2.366
 49080,  4.642,  5.436, 23.453, 10.362,  2.295
 49140,  4.737,  5.420, 23.439, 10.711,  2.608
 49200,  4.812,  5.462, 23.444, 10.451,  2.607
 49260,  4.763,  5.519, 22.114, 10.696,  2.312
 49320,  4.848,  5.725, 23.457, 10.401,  2.691
 49380,  4.894,  5.360, 23.548, 10.502,  2.653
 49440,  4.687,  5.573, 22.513, 10.140,  2.555
 49500,  4.592,  5.503, 23.766,  9.830,  2.338
 49560,  4.586,  5.284, 23.066, 10.003,  2.322
 49620,  4.543,  5.494, 22.358,  9.818,  2.225
 49680,  4.510,  5.441, 24.197,  9.872,  2.192
 49740,  4.372,  6.195, 19.548,  9.352,  1.870
 49800,  4.597,  6.148, 21.868,  9.786,  2.069
 49860,  4.635,  6.233, 22.691, 10.079,  2.220
 49920,  4.583,  6.157, 22.979, 10.377,  2.115
 49980,  4.589,  6.052, 22.650, 10.166,  1.982
 50040,  4.516,  6.377, 23.738, 10.052,  2.144
 50100,  4.468,  6.442, 25.300, 10.015,  2.107
 50160,  4.554,  6.770, 24.930, 10.299,  2.140
 50220,  4.552,  6.503, 24.083, 10.056,  2.039
 50280,  4.576,  6.944, 24.337, 10.439,  2.183
 50340,  4.653,  7.098, 24.634, 10.377,  2.184
 50400,  4.613,  6.811, 25.205, 10.118,  2.107
 50460,  4.727,  6.581, 23.575, 10.196,  1.898
 50520,  4.832,  6.407, 24.792, 10.036,  2.217
 50580,  4.819,  6.331, 23.548,  9.970,  2.249
 50640,  4.819,  5.945, 23.147, 10.262,  2.280
 50700,  4.854,  6.227, 23.764, 10.435,  2.353
 50760,  4.833,  6.415, 22.750, 10.312,  2.362
 50820,  4.983,  6.120, 21.866, 10.131,  2.283
 50880,  4.877,  6.342, 23.777, 10.382,  2.306
 50940,  4.836,  6.261, 24.686, 10.110,  2.450
 51000,  4.911,  6.362, 22.963, 10.333,  2.204
 51060,  4.796,  6.451, 23.351, 10.258,  2.255
 51120,  4.822,  6.288, 22.715, 10.465,  2.259
 51180,  4.822,  6.273, 22.815, 10.527,  2.176
 51240,  4.823,  6.518, 23.298, 10.032,  2.306
 51300,  4.802,  6.431, 22.712, 10.160,  2.198
 51360,  4.829,  6.431, 23.650, 10.409,  2.125
 51420,  4.751,  6.820, 22.979, 10.428,  2.155
 51480,  4.765,  6.490, 23.576, 10.097,  2.170
 51540,  4.631,  5.643, 23.810,  9.618,  2.228
 51600,  4.590,  5.627, 18.845, 10.125,  1.875
 51660,  4.779,  6.338, 21.758, 10.136,  2.049
 51720,  4.865,  6.558, 23.519, 10.224,  2.188
 51780,  4.892,  6.582, 23.682, 10.345,  2.110
 51840,  4.903,  7.166, 24.851, 10.468,  2.325
 51900,  4.920,  6.920, 23.935, 10.385,  2.064
 51960,  4.885,  7.391, 25.026, 10.137,  2.161
 52020,  5.005,  7.702, 25.079, 10.229,  2.223
 52080,  4.929,  8.934, 26.024, 10.288,  2.192
 52140,  4.991,  9.680, 25.968, 10.138,  2.341
 52200,  5.150, 10.149, 26.776, 10.480,  2.496
 52260,  5.233, 10.073, 26.585, 10.589,  2.367
 52320,  5.184, 11.547, 27.078, 10.410,  2.422
 52380,  5.301, 10.513, 25.116, 10.609,  2.516
 52440,  5.322, 11.241, 25.334, 10.650,  2.405
 52500,  5.227, 11.111, 27.568, 10.424,  2.588
 52560,  5.099,  9.096, 25.002, 10.422,  2.410
 52620,  5.259,  9.893, 25.934, 10.568,  2.362
 52680,  5.239,  9.829, 24.882, 10.446,  2.408
 52740,  5.291, 10.119, 24.602, 10.346,  2.331
 52800,  5.277, 10.297, 25.240, 10.597,  2.444
 52860,  5.419, 11.154, 26.795, 10.821,  2.428
 52920,  5.383, 11.579, 26.372, 10.697,  2.377
 52980,  5.439, 11.747, 26.547, 10.772,  2.430
 53040,  5.506, 12.186, 25.349, 10.633,  2.537
 53100,  5.529, 12.381, 26.048, 10.748,  2.440
 53160,  5.558, 12.695, 26.815, 10.670,  2.540
 53220,  5.545, 12.565, 26.595, 10.595,  2.419
 53280,  5.483, 11.963, 26.526, 10.490,  2.430
 53340,  5.415, 12.090, 26.742, 10.581,  2.301
 53400,  5.400, 11.578, 26.050, 10.468,  2.171
 53460,  5.336, 10.286, 22.493, 10.252,  1.866
 53520,  5.424, 10.127, 23.863, 10.497,  1.889
 53580,  5.405, 10.765, 24.818, 10.650,  1.944
 53640,  5.505, 10.108, 24.262, 10.673,  1.961
 53700,  5.406, 10.231, 25.635, 10.881,  1.791
 53760,  5.531, 10.848, 24.387, 10.648,  1.629
 53820,  5.528, 11.252, 25.255, 10.762,  1.545
 53880,  5.588, 11.924, 25.687, 10.893,  1.850
 53940,  5.676, 12.572, 27.196, 10.501,  1.779
 54000,  5.777, 13.597, 25.795, 10.893,  1.856
 54060,  5.616, 12.651, 26.867, 10.809,  1.813
 54120,  5.483, 11.862, 26.393, 10.598,  1.761
 54180,  5.529, 12.515, 25.600, 10.552,  1.777
 54240,  5.536, 12.912, 26.141, 10.909,  1.594
 54300,  5.431, 11.252, 26.773, 10.539,  1.634
 54360,  5.348, 10.585, 25.374, 10.140,  1.611
 54420,  5.495, 11.652, 25.420, 10.328,  1.529
 54480,  5.345, 11.791, 26.171, 10.129,  1.592
 54540,  5.388, 11.387, 26.257, 10.205,  1.449
 54600,  5.437, 11.618, 25.955, 10.047,  1.404
 54660,  5.483, 11.767, 25.923, 10.312,  1.262
 54720,  5.361, 10.635, 26.131, 10.152,  1.334
 54780,  5.262, 10.645, 25.540, 10.254,  1.218
 54840,  5.413, 11.250, 26.267, 10.441,  1.394
 54900,  5.392, 11.010, 24.696, 10.218,  1.203
 54960,  5.351, 10.437, 25.721, 10.051,  1.194
 55020,  5.446, 10.704, 27.252, 10.160,  1.176
 55080,  5.352, 10.371, 26.790,  9.907,  1.181
 55140, -9999.000, -9999.000, -9999.000, -9999.000, -9999.000
 55200, -9999.000, -9999.000, -9999.000, -9999.000, -9999.000
 55260, -9999.000, -9999.000, -9999.000, -9999.000, -9999.000
 55320, -9999.000, -9999.000, -9999.000, -9999.000, -9999.000
 55380, -9999.000, -9999.000, -9999.000, -9999.000, -9999.000
 55440, -9999.000, -9999.000, -9999.000, -9999.000, -9999.000
 55500, -9999.000, -9999.000, -9999.000, -9999.000, -9999.000
 55560, -9999.000, -9999.000, -9999.000, -9999.000, -9999.000
 55620, -9999.000, -9999.000, -9999.000, -9999.000, -9999.000
 55680, -9999.000, -9999.000, -9999.000, -9999.000, -9999.000
 55740, -9999.000, -9999.000, -9999.000, -9999.000, -9999.000
 55800, -9999.000, -9999.000, -9999.000, -9999.000, -9999.000
 55860, -9999.000, -9999.000, -9999.000, -9999.000, -9999.000
 55920, -9999.000, -9999.000, -9999.000, -9999.000, -9999.000
 55980, -9999.000, -9999.000, -9999.000, -9999.000, -9999.000
 56040, -9999.000, -9999.000, -9999.000, -9999.000, -9999.000
 56100, -9999.000, -9999.000, -9999.000, -9999.000, -9999.000
 56160, -9999.000, -9999.000, -9999.000, -9999.000, -9999.000
 56220, -9999.000, -9999.000, -9999.000, -9999.000, -9999.000
 56280, -9999.000, -9999.000, -9999.000, -9999.000, -9999.000
 56340, -9999.000, -9999.000, -9999.000, -9999.000, -9999.000
 56400, 10.376, 44.280, 59.565, 15.590,  2.800
 56460,  9.837, 38.700, 50.010, 14.102,  2.249
 56520,  9.752, 40.086, 49.304, 13.985,  2.229
 56580,  9.615, 38.881, 45.680, 14.054,  2.176
 56640,  9.135, 37.388, 40.713, 12.433,  1.905
 56700,  9.459, 40.289, 45.384, 13.198,  2.228
 56760,  9.804, 41.294, 45.177, 13.489,  2.287
 56820,  9.859, 40.719, 43.334, 13.542,  2.273
 56880, 10.000, 39.445, 42.432, 13.751,  2.188
 56940, 10.159, 43.787, 41.666, 13.544,  2.216
 57000, 10.252, 43.867, 42.574, 13.398,  2.285
 57060, 10.074, 44.207, 42.091, 13.517,  2.355
 57120,  9.446, 32.356, 39.884, 13.337,  2.159
 57180,  9.063, 25.536, 37.641, 13.369,  1.647
 57240,  9.192, 27.063, 36.867, 13.256,  1.706
 57300,  9.401, 31.006, 36.574, 13.371,  1.790
 57360,  9.337, 29.449, 37.037, 13.486,  1.844
 57420,  9.028, 26.367, 35.750, 13.490,  1.652
 57480,  9.121, 25.931, 35.191, 13.317,  1.745
 57540,  9.069, 23.682, 36.144, 13.294,  1.664
 57600,  8.937, 19.838, 35.294, 13.567,  1.654
 57660,  9.051, 21.411, 34.931, 13.599,  1.389
 57720,  9.205, 22.718, 34.797, 13.719,  1.651
 57780,  9.346, 24.797, 35.608, 13.865,  1.735
 57840,  9.324, 27.241, 34.577, 13.604,  1.761
 57900,  9.566, 28.854, 33.098, 13.459,  1.707
 57960,  9.557, 28.517, 34.946, 13.631,  1.652
 58020,  9.383, 26.921, 34.544, 13.535,  1.761
 58080,  9.406, 25.904, 35.101, 13.667,  1.565
 58140,  9.459, 24.748, 37.005, 13.801,  1.623
 58200,  9.400, 25.827, 35.375, 13.643,  1.603
 58260, -9999.000, -9999.000, -9999.000, -9999.000, -9999.000
 58320,  9.354, 25.471, 29.265, 12.850,  1.273
 58380,  9.781, 25.631, 32.945, 13.599,  1.429
 58440,  9.743, 26.285, 33.306, 13.392,  1.512
 58500, 10.026, 27.188, 35.062, 13.823,  1.587
 58560, 10.146, 27.603, 35.743, 13.908,  1.533
 58620, 10.402, 32.541, 36.617, 14.134,  1.472
 58680, 10.839, 37.795, 37.870, 14.210,  1.635
 58740, 11.186, 40.391, 38.870, 14.237,  1.859
 58800, 11.214, 41.489, 40.107, 14.362,  1.944
 58860, 11.228, 40.893, 38.650, 14.213,  1.979
 58920, 11.248, 41.173, 39.728, 14.463,  2.002
 58980, 11.320, 41.502, 39.673, 14.247,  2.184
 59040, 11.418, 40.831, 40.136, 14.634,  2.278
 59100, 11.582, 42.180, 40.336, 14.639,  2.114
 59160, 11.676, 41.827, 40.275, 14.703,  2.238
 59220, 11.668, 42.207, 40.876, 14.283,  2.115
 59280, 11.688, 42.479, 40.470, 14.601,  2.039
 59340, 11.609, 41.910, 39.170, 14.149,  2.029
 59400, 11.409, 40.101, 38.816, 13.997,  2.046
 59460, 11.648, 39.887, 39.948, 14.244,  2.178
 59520, 11.452, 38.622, 37.125, 13.947,  2.210
 59580, 11.428, 38.246, 36.504, 14.147,  2.208
 59640, 11.663, 39.056, 36.588, 14.098,  2.444
 59700, 11.831, 38.616, 36.025, 13.910,  2.707
 59760, 11.818, 37.070, 36.063, 14.243,  2.506
 59820, 11.683, 37.483, 37.745, 14.058,  2.410
 59880, 11.272, 33.985, 36.958, 14.210,  2.043
 59940, 11.291, 34.308, 38.163, 14.210,  1.989
 60000, 11.292, 34.268, 37.613, 14.004,  1.897
 60060, 11.355, 33.648, 34.121, 14.185,  1.791
 60120, 11.341, 33.226, 31.148, 13.233,  1.682
 60180, 11.410, 33.389, 33.028, 13.643,  1.442
 60240, 11.689, 34.349, 35.372, 14.136,  1.611
 60300, 11.765, 35.369, 35.372, 14.217,  1.653
 60360, 11.486, 32.859, 34.866, 13.913,  1.562
 60420, 11.538, 32.783, 36.265, 13.761,  1.455
 60480, 11.575, 31.643, 35.003, 13.834,  1.406
 60540, 11.697, 31.553, 33.368, 13.564,  1.427
 60600, 11.919, 33.016, 33.930, 13.847,  1.447
 60660, 12.565, 33.366, 33.342, 14.444,  1.360
 60720, 12.269, 32.161, 34.469, 14.275,  1.468
 60780, 12.804, 34.263, 32.273, 14.586,  1.419
 60840, 12.687, 34.576, 34.796, 14.766,  1.501
 60900, 12.878, 34.898, 35.173, 14.494,  1.421
 60960, 12.954, 34.274, 33.713, 14.682,  1.362
 61020, 13.398, 33.323, 33.866, 15.133,  1.163
 61080, 13.122, 31.466, 34.255, 15.070,  1.228
 61140, 12.522, 29.062, 32.760, 14.673,  1.301
 61200, 12.214, 28.298, 33.425, 14.536,  1.630
 61260, 12.423, 28.673, 32.029, 14.571,  1.539
 61320, 12.507, 29.802, 32.379, 14.604,  1.761
 61380, 12.123, 26.869, 32.954, 14.548,  2.313
 61440, 12.151, 27.504, 30.807, 14.377,  2.396
 61500, 12.132, 27.131, 32.099, 14.395,  2.339
 61560, 12.370, 27.335, 31.212, 14.447,  2.321
 61620, 12.518, 28.826, 32.699, 14.628,  2.696
 61680, 12.465, 27.977, 31.295, 14.379,  2.530
 61740, 12.641, 28.587, 31.350, 14.385,  2.643
 61800, 12.566, 27.751, 32.833, 14.569,  2.725
 61860, 12.507, 28.024, 31.617, 14.582,  2.843
 61920, 12.602, 27.170, 32.486, 14.282,  3.067
 61980, 11.611, 25.401, 25.934, 14.335,  2.983
 62040, 11.995, 25.440, 27.550, 13.726,  2.558
 62100, 12.232, 25.759, 29.127, 14.236,  2.223
 62160, 12.831, 27.518, 29.657, 14.361,  2.299
 62220, 13.214, 27.998, 29.871, 14.893,  2.008
 62280, 13.396, 30.285, 30.406, 14.842,  1.907
 62340, 13.421, 29.596, 31.476, 14.742,  2.072
 62400, 13.146, 30.215, 31.783, 14.843,  1.962
 62460, 13.059, 29.655, 31.360, 14.758,  1.713
 62520, 12.929, 29.645, 31.334, 14.690,  1.798
 62580, 13.023, 29.755, 31.420, 15.076,  1.813
 62640, 12.617, 27.756, 31.751, 15.048,  1.884
 62700, 12.592, 27.598, 30.709, 14.250,  1.523
 62760, 12.311, 26.271, 30.288, 14.255,  1.404
 62820, 12.011, 24.958, 30.097, 14.148,  1.319
 62880, 11.954, 24.901, 30.168, 14.191,  1.283
 62940, 11.718, 23.744, 29.044, 14.022,  1.332
 63000, 11.407, 22.802, 29.442, 13.806,  1.283
 63060, 12.125, 25.312, 30.465, 13.948,  1.451
 63120, 12.452, 25.944, 30.678, 14.389,  1.648
 63180, 12.191, 25.064, 31.512, 14.386,  1.576
 63240, 14.144, 32.783, 30.469, 15.012,  2.176
 63300, 14.031, 31.839, 30.451, 15.140,  2.450
 63360, 14.048, 31.745, 30.387, 15.063,  2.341
 63420, 14.229, 31.677, 29.872, 14.968,  2.316
 63480, 14.363, 33.285, 30.669, 15.176,  2.416
 63540, 13.953, 31.341, 31.743, 14.981,  2.415
 63600, 13.035, 28.319, 28.966, 14.344,  2.012
 63660, 13.373, 29.288, 30.179, 14.624,  2.030
 63720, 13.640, 28.973, 29.016, 14.672,  1.904
 63780, 13.528, 30.239, 29.394, 14.922,  1.729
 63840, 12.968, 27.820, 26.135, 14.093,  1.574
 63900, 13.555, 29.351, 27.681, 14.480,  1.642
 63960, 13.244, 29.225, 29.417, 14.600,  1.631
 64020, 13.548, 30.167, 28.086, 14.151,  1.650
 64080, 13.400, 28.865, 29.365, 14.593,  1.659
 64140, 13.313, 29.332, 29.381, 14.186,  1.597
 64200, 13.324, 28.936, 29.565, 14.557,  1.557
 64260, 12.803, 27.889, 28.190, 14.458,  1.429
 64320, 12.348, 28.915, 27.748, 13.885,  1.476
 64380, 12.949, 29.512, 29.292, 14.012,  1.455
 64440, 13.202, 30.138, 29.920, 14.546,  1.472
 64500, 12.741, 29.973, 29.221, 14.035,  1.393
 64560, 12.458, 29.615, 29.896, 14.204,  1.363
 64620, 12.904, 30.044, 28.766, 14.622,  1.295
 64680, 13.077, 30.207, 28.808, 14.476,  1.309
 64740, 13.381, 31.086, 28.626, 14.408,  1.355
 64800, 13.878, 32.805, 28.910, 14.687,  1.436
 64860, 13.489, 31.276, 29.921, 14.628,  1.375
 64920, 13.370, 31.124, 30.161, 14.417,  1.358
 64980, 13.582, 31.349, 29.742, 14.356,  1.454
 65040, 13.260, 30.399, 30.021, 14.218,  1.457
 65100, 10.336, 18.273, 30.280, 13.880,  1.217
 65160,  9.544, 15.214, 30.312, 14.092,  0.940
 65220,  9.906, 16.891, 31.320, 14.052,  1.067
 65280,  9.754, 16.489, 30.939, 13.507,  1.089
 65340, 10.171, 15.852, 29.347, 13.770,  0.932
 65400, 10.384, 14.844, 29.640, 14.085,  0.970
 65460, 10.134, 14.429, 29.892, 14.118,  0.861
 65520, 10.613, 17.669, 29.225, 14.010,  0.945
 65580, 10.574, 16.771, 30.112, 13.987,  1.110
 65640, -9999.000, -9999.000, -9999.000, -9999.000, -9999.000
 65700, 10.412, 15.846, 25.107, 13.744,  0.863
 65760, 10.760, 15.600, 27.658, 14.232,  0.910
 65820, 10.888, 16.517, 28.411, 14.254,  0.891
 65880, 11.130, 17.307, 28.831, 14.799,  1.052
 65940, 11.131, 17.644, 30.487, 14.918,  0.981
 66000, 11.064, 16.545, 29.564, 14.747,  0.881
 66060, 10.915, 16.481, 30.242, 14.941,  0.929
 66120, 11.143, 16.689, 30.913, 14.631,  1.023
 66180, 11.249, 16.975, 30.499, 14.939,  0.982
 66240, 11.376, 17.622, 31.449, 14.854,  1.015
 66300, 11.786, 18.658, 31.516, 15.131,  0.950
 66360, 11.595, 17.840, 31.804, 15.299,  1.081
 66420, 11.751, 18.367, 31.038, 15.304,  0.974
 66480, 11.876, 18.843, 32.503, 15.440,  1.040
 66540, 12.080, 18.985, 29.070, 15.320,  0.969
 66600, 12.199, 19.718, 31.640, 15.345,  0.909
 66660, 12.601, 19.771, 33.119, 15.495,  0.951
 66720, 12.790, 20.835, 32.649, 15.542,  0.911
 66780, 12.861, 21.479, 35.485, 15.427,  0.931
 66840, 12.957, 21.200, 32.675, 15.779,  0.882
 66900, 12.832, 21.740, 34.944, 16.196,  0.963
 66960, 12.638, 21.516, 32.025, 15.456,  0.990
 67020, 11.759, 18.247, 33.038, 14.889,  0.973
 67080, 11.799, 17.847, 33.255, 14.999,  0.980
 67140, 11.705, 17.165, 32.768, 15.057,  1.020
 67200, 10.961, 15.492, 32.784, 14.492,  0.953
 67260, 10.777, 15.564, 30.881, 14.536,  0.991
 67320, 10.409, 13.782, 31.902, 14.349,  1.023
 67380, 10.056, 12.568, 30.318, 13.956,  0.782
 67440,  9.837, 11.324, 31.066, 13.766,  0.761
 67500, -9999.000, -9999.000, -9999.000, -9999.000, -9999.000
 67560, 10.122, 10.221, 30.953, 13.835,  0.657
 67620, 10.198, 10.505, 31.860, 14.184,  0.728
 67680, 10.628, 10.986, 32.503, 13.968,  0.726
 67740, 11.137, 11.888, 34.127, 14.489,  0.750
 67800, 11.381, 11.929, 33.663, 14.315,  0.783
 67860, 11.143, 12.172, 34.732, 13.871,  0.806
 67920, 10.615, 11.640, 34.450, 14.077,  0.928
 67980, 10.177, 11.798, 32.814, 14.079,  0.951
 68040, 10.069, 11.860, 32.298, 14.275,  0.980
 68100, 10.142, 11.929, 31.579, 14.023,  0.848
 68160, 10.639, 13.474, 33.261, 14.488,  0.774
 68220, 10.819, 12.578, 34.803, 14.378,  0.838
 68280, 10.660, 12.364, 32.230, 14.325,  0.844
 68340, 11.174, 12.720, 31.362, 14.437,  0.749
 68400, 10.720, 12.213, 30.194, 14.447,  0.783
 68460, 10.503, 11.620, 29.245, 13.880,  0.886
 68520, 10.656, 11.438, 28.592, 13.650,  0.897
 68580, 11.158, 12.583, 31.226, 14.641,  0.835
 68640, 11.050, 12.006, 30.228, 14.582,  0.668
 68700, 11.088, 12.993, 30.079, 14.284,  0.813
 68760, 11.023, 12.529, 29.934, 14.355,  0.875
 68820, 10.840, 12.960, 28.884, 14.239,  0.787
 68880, 10.652, 13.889, 31.311, 14.279,  0.804
 68940, 10.656, 13.492, 28.682, 14.404,  0.725
 69000, 10.782, 13.643, 28.897, 14.197,  0.782
 69060, 11.347, 14.336, 28.666, 14.169,  0.745
 69120, 11.163, 14.357, 28.698, 14.517,  0.776
 69180, 11.353, 14.920, 29.275, 14.520,  0.752
 69240, 11.601, 14.704, 29.467, 14.469,  0.735
 69300, 11.139, 15.076, 26.719, 14.240,  0.726
 69360, -9999.000, -9999.000, -9999.000, -9999.000, -9999.000
 69420, 11.889, 15.615, 23.240, 13.435,  1.027
 69480, 11.887, 15.854, 24.941, 13.971,  0.883
 69540, 11.805, 15.669, 25.049, 14.375,  0.966
 69600, 12.360, 15.703, 24.417, 14.625,  0.961
 69660, 12.635, 15.830, 26.527, 14.503,  0.970
 69720, 12.699, 15.055, 25.991, 14.702,  0.919
 69780, 12.049, 15.565, 26.966, 14.724,  0.988
 69840, 12.303, 15.062, 25.944, 14.682,  0.993
 69900, 12.538, 13.818, 25.144, 14.572,  0.919
 69960, 12.598, 13.573, 24.693, 14.543,  0.906
 70020, 12.750, 13.234, 27.215, 14.598,  0.877
 70080, 12.911, 12.893, 25.298, 14.738,  0.840
 70140, 12.811, 13.829, 28.021, 14.958,  1.028
 70200, 12.983, 14.747, 24.709, 15.022,  0.943
 70260, 12.941, 13.762, 26.806, 15.411,  1.066
 70320, 12.961, 13.350, 25.165, 15.097,  0.975
 70380, 12.834, 13.772, 27.182, 15.042,  0.898
 70440, 12.817, 14.009, 25.806, 14.700,  0.985
 70500, 12.760, 15.586, 27.824, 15.151,  0.957
 70560, 12.859, 16.065, 28.156, 14.957,  1.055
 70620, 13.142, 17.806, 26.443, 15.232,  0.911
 70680, 12.919, 18.601, 26.102, 14.993,  0.914
 70740, 12.701, 19.316, 27.655, 15.169,  1.015
 70800, 12.228, 14.109, 26.224, 15.137,  1.111
 70860, 12.127, 13.886, 23.168, 15.008,  1.000
 70920, 12.615, 14.148, 24.169, 15.151,  0.979
 70980, 12.856, 15.443, 24.517, 15.473,  0.816
 71040, 12.913, 14.416, 23.341, 15.034,  0.877
 71100, 12.886, 16.015, 25.958, 15.170,  1.037
 71160, 12.916, 15.825, 23.920, 15.069,  0.890
 71220, 11.963, 15.285, 20.720, 13.930,  0.816
 71280, 12.211, 14.900, 23.460, 14.425,  0.848
 71340, 12.452, 14.513, 21.200, 14.227,  0.821
 71400, 12.458, 14.243, 23.487, 14.423,  0.942
 71460, 12.556, 14.956, 22.775, 15.285,  0.993
 71520, 12.611, 15.419, 22.868, 15.010,  0.958
 71580, 13.141, 15.190, 22.492, 14.983,  0.982
 71640, 13.228, 14.289, 23.828, 15.067,  0.872
 71700, 13.276, 14.354, 24.416, 14.359,  0.949
 71760, 13.532, 14.361, 22.505, 14.799,  0.819
 71820, 13.487, 16.217, 24.839, 14.842,  0.893
 71880, 13.474, 16.033, 24.666, 14.545,  0.858
 71940, 13.348, 18.608, 23.691, 14.678,  0.854
 72000, 13.347, 19.243, 22.054, 15.067,  0.892
 72060, 13.999, 20.313, 26.295, 15.180,  0.986
 72120, 14.596, 19.023, 25.336, 15.386,  0.946
 72180, 14.727, 19.312, 25.260, 15.271,  0.977
 72240, 14.567, 18.700, 25.972, 15.290,  0.863
 72300, 14.670, 18.051, 23.256, 15.179,  0.802
 72360, 14.748, 19.000, 24.589, 15.556,  0.856
 72420, 14.707, 18.833, 25.138, 15.333,  1.009
 72480, 14.749, 18.758, 25.225, 15.312,  0.915
 72540, 14.888, 18.915, 24.511, 15.256,  0.879
 72600, 14.347, 17.745, 23.659, 14.949,  0.946
 72660, 13.857, 15.405, 23.597, 15.135,  0.907
 72720, 13.800, 13.814, 21.527, 15.016,  0.782
 72780, 13.836, 14.484, 22.326, 14.726,  0.872
 72840, 14.173, 15.551, 20.919, 14.985,  0.964
 72900, 14.829, 16.229, 22.455, 15.468,  0.723
 72960, 14.992, 16.829, 22.900, 15.314,  0.795
 73020, -9999.000, -9999.000, -9999.000, -9999.000, -9999.000
 73080, 14.709, 17.626, 20.531, 15.247,  0.760
 73140, 15.232, 17.405, 20.676, 15.081,  0.826
 73200, 14.843, 16.495, 22.003, 15.094,  0.875
 73260, 15.084, 16.564, 21.304, 15.309,  0.857
 73320, 15.194, 17.382, 22.002, 15.322,  0.822
 73380, 15.219, 17.413, 21.951, 15.383,  0.822
 73440, 15.331, 18.681, 21.858, 15.372,  0.854
 73500, 15.250, 16.902, 22.588, 15.948,  0.995
 73560, 15.151, 15.994, 22.517, 15.617,  0.860
 73620, 15.289, 16.881, 21.732, 15.421,  0.912
 73680, 15.744, 16.466, 20.685, 15.752,  0.877
 73740, 15.758, 15.685, 22.484, 15.548,  0.936
 73800, 15.656, 16.086, 22.969, 15.360,  0.868
 73860, 15.879, 16.390, 21.980, 15.568,  0.754
 73920, 15.700, 16.625, 22.636, 15.616,  0.848
 73980, 15.889, 17.469, 21.787, 15.670,  0.868
 74040, 16.064, 16.268, 22.815, 15.599,  0.801
 74100, 15.931, 15.705, 21.241, 15.863,  0.851
 74160, 16.101, 17.124, 22.802, 16.214,  0.800
 74220, 16.164, 16.796, 23.553, 16.266,  1.002
 74280, 16.217, 16.978, 23.121, 16.240,  0.905
 74340, 16.399, 16.215, 20.905, 16.048,  0.832
 74400, 16.621, 17.065, 23.219, 16.137,  0.820
 74460, 16.674, 17.752, 23.066, 16.315,  0.805
 74520, 17.224, 16.814, 22.956, 16.425,  0.817
 74580, 16.773, 17.165, 23.844, 16.343,  0.774
 74640, 16.760, 17.336, 23.838, 16.308,  0.716
 74700, 16.882, 17.360, 24.716, 16.382,  0.782
 74760, 16.925, 17.971, 23.760, 16.755,  0.809
 74820, 16.920, 18.448, 23.121, 16.753,  0.780
 74880, -9999.000, -9999.000, -9999.000, -9999.000, -9999.000
 74940, 16.711, 18.813, 22.575, 16.099,  0.830
 75000, 16.922, 19.118, 21.709, 16.808,  0.718
 75060, 16.744, 18.205, 22.882, 16.590,  0.752
 75120, 17.414, 17.655, 23.472, 16.706,  0.726
 75180, 17.585, 16.055, 24.616, 15.639,  0.768
 75240, 17.476, 17.697, 24.765, 15.985,  0.711
 75300, 17.644, 18.849, 26.221, 15.621,  0.742
 75360, 17.422, 17.027, 24.985, 15.093,  0.608
 75420, 17.471, 16.835, 26.048, 15.704,  0.659
 75480, 17.350, 17.684, 26.643, 15.599,  0.559
 75540, 17.341, 16.973, 26.120, 15.447,  0.608
 75600, 17.193, 16.243, 24.957, 15.532,  0.543
 75660, 17.029, 16.375, 28.141, 15.642,  0.811
 75720, 16.713, 15.707, 25.999, 15.095,  0.761
 75780, 16.802, 14.640, 25.482, 15.180,  0.639
 75840, 16.432, 14.807, 24.794, 14.837,  0.486
 75900, 16.276, 14.281, 24.189, 14.917,  0.518
 75960, 16.335, 13.927, 23.751, 14.535,  0.674
 76020, 16.306, 14.301, 25.257, 14.700,  0.596
 76080, 16.240, 14.277, 25.433, 14.719,  0.573
 76140, 16.650, 14.866, 25.673, 15.018,  0.605
 76200, 16.598, 14.860, 24.245, 15.142,  0.470
 76260, 16.560, 14.678, 24.563, 14.705,  0.637
 76320, 16.603, 15.684, 23.677, 14.943,  0.559
 76380, 16.787, 16.033, 23.578, 15.189,  0.555
 76440, 16.672, 16.301, 26.025, 14.872,  0.419
 76500, 16.365, 18.357, 26.829, 14.272,  0.521
 76560, 15.708, 16.538, 28.314, 13.957,  0.498
 76620, 14.373, 13.074, 27.452, 13.301,  0.491
 76680, 14.355, 12.792, 26.485, 12.904,  0.464
 76740, -9999.000, -9999.000, -9999.000, -9999.000, -9999.000
 76800, 14.112, 11.049, 21.417, 12.425,  0.369
 76860, 14.441, 12.082, 26.236, 12.707,  0.459
 76920, 14.946, 12.646, 29.375, 12.857,  0.355
 76980, 14.933, 12.425, 26.810, 12.368,  0.389
 77040, 14.905, 12.124, 27.918, 12.924,  0.451
 77100, 12.922, 12.100, 26.442, 11.787,  0.446
 77160, 11.677, 11.515, 27.774, 10.797,  0.411
 77220, 11.092, 11.627, 28.615, 10.504,  0.349
 77280, 10.819, 11.483, 29.996,  9.912,  0.368
 77340, 10.717, 10.770, 28.676,  9.376,  0.319
 77400, 10.563, 10.829, 29.533,  9.165,  0.324
 77460, 10.940, 10.246, 29.815,  9.457,  0.338
 77520, 11.328, 10.324, 30.992,  9.739,  0.297
 77580, 11.874, 10.993, 32.071, 10.023,  0.269
 77640, 13.127, 12.624, 36.000, 10.688,  0.355
 77700, 13.343, 13.180, 35.852, 10.853,  0.259
 77760, 12.788, 12.635, 35.162, 10.472,  0.350
 77820, 12.691, 13.388, 34.065, 10.473,  0.391
 77880, 12.646, 13.334, 33.586, 10.438,  0.403
 77940, 13.035, 14.408, 38.021, 10.660,  0.360
 78000, 12.956, 14.721, 37.123, 10.563,  0.485
 78060, 12.576, 14.339, 34.941, 10.179,  0.350
 78120, 12.650, 14.604, 37.198, 10.340,  0.375
 78180, 13.278, 14.597, 38.656, 10.623,  0.391
 78240, 12.785, 14.768, 40.098, 11.008,  0.400
 78300, 12.679, 13.963, 41.547, 10.690,  0.351
 78360, 13.306, 14.709, 43.463, 11.242,  0.353
 78420, 12.230, 13.925, 41.812, 10.665,  0.375
 78480, 10.972, 13.675, 42.781, 10.020,  0.434
 78540, 11.647, 15.060, 42.741, 10.434,  0.460
 78600, 10.799, 15.726, 33.735, 10.517,  0.523
 78660, 11.130, 16.187, 39.261, 10.250,  0.484
 78720, 11.197, 17.294, 40.296, 10.001,  0.522
 78780, 11.215, 15.973, 40.058, 10.216,  0.433
 78840, 11.137, 18.142, 42.390, 10.245,  0.427
 78900, 10.861, 17.375, 44.677, 10.079,  0.469
 78960, 10.739, 18.592, 48.789,  9.851,  0.400
 79020, 10.590, 19.455, 48.310, 10.026,  0.492
 79080, 10.362, 19.019, 45.330,  9.673,  0.504
 79140, 10.226, 17.297, 46.884, 10.032,  0.462
 79200, 10.263, 18.206, 44.706,  9.913,  0.520
 79260, 10.155, 17.792, 43.286, 10.064,  0.448
 79320,  9.744, 14.274, 40.953,  9.511,  0.339
 79380,  9.432, 14.041, 40.725,  9.645,  0.431
 79440,  9.158, 12.985, 35.893,  9.563,  0.371
 79500,  9.140, 13.253, 37.839,  9.364,  0.354
 79560,  9.100, 12.275, 35.192,  9.456,  0.318
 79620,  9.080, 12.791, 36.613,  9.342,  0.321
 79680,  8.975, 11.469, 34.240,  9.058,  0.214
 79740,  8.978, 11.348, 36.413,  9.158,  0.235
 79800,  9.107, 10.889, 36.228,  8.880,  0.197
 79860,  8.395, 10.549, 37.426,  8.781,  0.228
 79920,  8.400, 10.807, 33.536,  8.696,  0.217
 79980,  8.263, 11.958, 39.703,  9.152,  0.263
 80040,  8.179, 11.474, 37.231,  8.905,  0.263
 80100,  7.456, 12.437, 43.530,  8.487,  0.276
 80160,  7.265, 11.089, 44.000,  8.108,  0.241
 80220,  7.181, 11.320, 44.989,  8.434,  0.129
 80280,  7.074, 12.126, 46.587,  8.146,  0.280
 80340,  7.317, 11.531, 47.084,  8.474,  0.163
 80400,  7.422, 11.048, 46.748,  9.178,  0.075
 80460,  6.490,  9.452, 35.104,  8.384,  0.311
 80520,  6.893, 10.520, 41.453,  7.995,  0.116
 80580,  7.127, 10.980, 44.940,  8.129,  0.116
 80640,  7.399, 11.184, 47.737,  8.615,  0.161
 80700,  7.722, 12.086, 52.366,  8.968,  0.215
 80760,  7.561, 11.730, 49.526,  8.748,  0.206
 80820,  7.326, 11.155, 52.494,  8.696,  0.199
 80880,  7.220, 11.070, 51.069,  8.403,  0.147
 80940,  7.348, 11.444, 52.605,  8.678,  0.239
 81000,  7.430, 12.463, 53.345,  8.532,  0.203
 81060,  7.594, 12.725, 55.069,  8.645,  0.259
 81120,  7.570, 12.447, 54.996,  8.847,  0.159
 81180,  7.855, 12.848, 54.814,  8.860,  0.271
 81240,  7.661, 13.175, 53.985,  8.982,  0.270
 81300,  7.485, 12.621, 51.338,  8.556,  0.253
 81360,  7.099, 11.728, 52.139,  8.339,  0.291
 81420,  6.958, 11.097, 48.785,  8.156,  0.242
 81480,  7.166, 11.873, 52.263,  8.158,  0.172
 81540,  7.214, 11.293, 48.711,  8.555,  0.324
 81600,  7.131, 11.454, 49.040,  8.324,  0.264
 81660,  7.115, 11.271, 44.495,  8.370,  0.328
 81720,  7.157, 11.423, 45.932,  8.486,  0.277
 81780,  7.258, 11.560, 44.494,  8.308,  0.276
 81840,  7.381, 11.488, 44.911,  8.422,  0.346
 81900,  7.286, 11.198, 43.995,  8.648,  0.370
 81960,  7.228, 11.269, 46.139,  8.424,  0.328
 82020,  6.606, 10.187, 41.213,  7.709,  0.361
 82080,  6.454, 10.551, 40.718,  7.825,  0.298
 82140,  6.540, 10.457, 43.005,  7.569,  0.258
 82200,  6.404, 10.588, 42.042,  7.836,  0.232
 82260,  6.438, 10.344, 39.880,  7.659,  0.269
 82320,  6.228, 10.658, 35.988,  7.631,  0.313
 82380,  6.533, 11.276, 37.992,  7.905,  0.300
 82440,  6.908, 11.738, 44.020,  7.805,  0.338
 82500,  6.703, 11.339, 44.543,  7.492,  0.327
 82560,  6.565, 12.006, 43.460,  7.502,  0.355
 82620,  6.437, 12.879, 43.747,  7.813,  0.353
 82680,  6.438, 12.497, 44.929,  7.371,  0.358
 82740,  6.738, 12.063, 46.727,  7.375,  0.345
 82800,  6.854, 12.604, 50.831,  7.199,  0.261
 82860,  6.846, 12.525, 53.372,  7.125,  0.355
 82920,  6.757, 11.924, 55.257,  7.127,  0.318
 82980,  6.715, 11.550, 53.132,  7.080,  0.237
 83040,  6.750, 12.849, 54.785,  7.226,  0.243
 83100,  6.701, 12.622, 57.952,  7.426,  0.331
 83160,  6.533, 12.595, 55.327,  7.059,  0.309
 83220,  5.545, 10.345, 47.832,  6.483,  0.340
 83280,  5.425, 10.844, 44.562,  6.357,  0.234
 83340,  5.359, 10.652, 42.127,  6.499,  0.301
 83400,  4.982,  9.602, 39.059,  6.083,  0.297
 83460,  4.862,  9.219, 37.115,  6.119,  0.284
 83520,  4.486,  8.245, 32.695,  5.604,  0.223
 83580,  4.412,  7.966, 30.649,  5.250,  0.211
 83640,  4.307,  6.733, 27.624,  5.176,  0.191
 83700,  4.341,  6.670, 26.779,  5.376,  0.179
 83760,  4.340,  6.464, 27.049,  5.156,  0.173
 83820,  4.412,  6.751, 25.724,  5.377,  0.150
 83880,  4.603,  7.180, 27.902,  5.616,  0.177
 83940,  4.715,  7.263, 28.692,  5.732,  0.180
 84000,  4.890,  8.037, 27.851,  5.851,  0.168
 84060,  4.985,  7.567, 27.704,  5.961,  0.217
 84120, -9999.000, -9999.000, -9999.000, -9999.000, -9999.000
 84180,  5.084,  7.590, 21.796,  6.255,  0.310
 84240,  5.693,  9.131, 26.271,  6.264,  0.242
 84300,  5.968, 10.711, 29.710,  6.273,  0.257
 84360,  5.927, 10.268, 31.840,  6.518,  0.274
 84420,  6.157, 10.307, 31.045,  6.989,  0.191
 84480,  7.085, 11.205, 33.728,  7.178,  0.261
 84540,  7.337, 11.305, 36.069,  7.709,  0.232
 84600,  7.352, 10.786, 38.376,  7.542,  0.223
 84660,  7.249, 10.497, 39.137,  7.640,  0.236
 84720,  7.179, 10.822, 40.787,  7.555,  0.233
 84780,  7.437, 10.525, 43.343,  7.463,  0.268
 84840,  7.217, 10.577, 44.463,  7.712,  0.277
 84900,  7.332, 11.247, 44.199,  7.643,  0.241
 84960,  7.265, 11.909, 45.893,  7.608,  0.218
 85020,  7.108, 11.115, 46.922,  7.348,  0.236
 85080,  6.939, 11.410, 45.250,  7.188,  0.231
 85140,  6.828, 11.148, 46.056,  7.137,  0.296
 85200,  6.811, 11.851, 44.763,  7.207,  0.245
 85260,  6.781, 12.421, 45.711,  6.853,  0.300
 85320,  6.780, 12.427, 45.859,  6.911,  0.341
 85380,  6.930, 12.720, 48.262,  6.752,  0.307
 85440,  6.835, 13.206, 48.921,  6.961,  0.294
 85500,  6.544, 12.829, 49.409,  6.768,  0.248
 85560,  6.033, 11.616, 50.816,  7.399,  0.419
 85620, -9999.000, -9999.000, -9999.000, -9999.000, -9999.000
 85680, -9999.000, -9999.000, -9999.000, -9999.000, -9999.000
 85740, -9999.000, -9999.000, -9999.000, -9999.000, -9999.000
 85800, -9999.000, -9999.000, -9999.000, -9999.000, -9999.000
 85860, -9999.000, -9999.000, -9999.000, -9999.000, -9999.000
 85920, -9999.000, -9999.000, -9999.000, -9999.000, -9999.000
 85980, -9999.000, -9999.000, -9999.000, -9999.000, -9999.000
 86040, -9999.000, -9999.000, -9999.000, -9999.000, -9999.000
 86100, -9999.000, -9999.000, -9999.000, -9999.000, -9999.000
 86160, -9999.000, -9999.000, -9999.000, -9999.000, -9999.000
 86220, -9999.000, -9999.000, -9999.000, -9999.000, -9999.000
 86280, -9999.000, -9999.000, -9999.000, -9999.000, -9999.000
 86340, -9999.000, -9999.000, -9999.000, -9999.000, -9999.000
