37, 1001
Michael A Robinson, Chris Jernigan, Subi Thakali
NOAA ESRL Chemical Sciences Laboratory and CIRES, U. of Colorado
NOAA Iodide CIMS Instrument
USOS
1, 1
2024, 08, 04, 2024, 08, 05
1
starttime_UTC, seconds_past_midnight, seconds_of_day_since_00:00:00_UTC
5
1, 1, 1, 1, 1
-9999, -9999, -9999, -9999, -9999
C4H7NO5_NOAACIMS, pptv, Gas_C4H7NO5_InSitu_S_AVMR, 
ISOPN_NOAACIMS, pptv, Gas_ISOPN_InSitu_S_AVMR, 
C5H10O3_NOAACIMS, pptv, Gas_C5H10O3_InSitu_S_AVMR, 
C5H9NO5_NOAACIMS, pptv, Gas_C5H9NO5_InSitu_S_AVMR, 
C10H17NO4_NOAACIMS, pptv, Gas_C10H17NO4_InSitu_S_AVMR, 
0
18
PI_CONTACT_INFO: 325 Broadway, R/CSD 7, Boulder, Colorado 80305; michael.a.robinson@noaa.gov; chris.jernigan@noaa.gov;
PLATFORM: NOAA CSL Mobile Lab
LOCATION: SLC, Utah
ASSOCIATED_DATA: 1Hz data also available on request.
INSTRUMENT_INFO: NOAA I- ToF CIMS
DATA_INFO: All data in parts per trillion by volume (pptv). 1 Hz data is available upon request.
UNCERTAINTY: TBD
ULOD_FLAG: -7777
ULOD_VALUE: N/A
LLOD_FLAG: -8888
LLOD_VALUE: N/A
DM_CONTACT_INFO: Nathan Howard; nathan.h.howard@noaa.gov
PROJECT_INFO: USOS, summer 2024. https://csl.noaa.gov/groups/csl7/measurements/2024usos/
STIPULATIONS_ON_USE: Users are strongly encouraged to contact the PI for proper data usage.
OTHER_COMMENTS: 
REVISION: RA
RA: Preliminary Data; For in-field use only
starttime_UTC, C4H7NO5_NOAACIMS, ISOPN_NOAACIMS, C5H10O3_NOAACIMS, C5H9NO5_NOAACIMS, C10H17NO4_NOAACIMS
     0, -9999.000, -9999.000, -9999.000, -9999.000, -9999.000
    60, -9999.000, -9999.000, -9999.000, -9999.000, -9999.000
   120, -9999.000, -9999.000, -9999.000, -9999.000, -9999.000
   180, -9999.000, -9999.000, -9999.000, -9999.000, -9999.000
   240, -9999.000, -9999.000, -9999.000, -9999.000, -9999.000
   300, -9999.000, -9999.000, -9999.000, -9999.000, -9999.000
   360, -9999.000, -9999.000, -9999.000, -9999.000, -9999.000
   420, -9999.000, -9999.000, -9999.000, -9999.000, -9999.000
   480,  7.713, 11.375, 60.680,  6.854,  1.079
   540,  8.113, 12.396, 62.876,  6.532,  0.472
   600,  8.077, 11.969, 62.992,  6.746,  0.407
   660,  7.857, 11.493, 63.012,  6.603,  0.504
   720,  7.726, 11.150, 62.511,  6.513,  0.413
   780,  7.563, 10.888, 61.684,  6.488,  0.408
   840,  7.406, 10.711, 59.360,  6.510,  0.397
   900,  7.404, 10.571, 60.153,  6.513,  0.341
   960,  7.297, 10.183, 58.218,  6.326,  0.402
  1020,  7.242, 10.195, 59.134,  6.263,  0.379
  1080,  7.252, 10.223, 59.350,  6.584,  0.323
  1140,  7.181, 10.311, 59.520,  6.319,  0.425
  1200,  7.150, 10.264, 58.448,  6.281,  0.362
  1260,  7.156,  9.722, 60.565,  6.663,  0.408
  1320,  7.221, 10.141, 59.873,  6.711,  0.395
  1380, -9999.000, -9999.000, -9999.000, -9999.000, -9999.000
  1440,  6.847,  9.494, 52.146,  6.031,  0.261
  1500,  7.185,  9.809, 55.675,  6.703,  0.320
  1560,  7.134,  9.553, 59.244,  6.520,  0.312
  1620,  7.380,  9.667, 61.008,  6.519,  0.321
  1680,  7.346,  9.802, 62.063,  6.744,  0.345
  1740,  7.452, 10.007, 64.793,  6.820,  0.400
  1800,  7.371,  9.939, 63.827,  6.553,  0.340
  1860,  7.437,  9.971, 65.327,  6.643,  0.341
  1920,  7.416,  9.694, 63.912,  6.684,  0.285
  1980,  7.376,  9.583, 66.185,  6.930,  0.360
  2040,  7.259,  9.732, 66.268,  6.690,  0.284
  2100,  7.469, 10.674, 66.166,  6.843,  0.329
  2160,  7.022, 10.098, 67.654,  6.631,  0.283
  2220,  6.877,  9.532, 69.459,  6.382,  0.309
  2280,  6.565,  8.857, 68.379,  5.966,  0.311
  2340,  6.013,  8.487, 68.516,  5.554,  0.353
  2400,  5.566,  8.211, 65.747,  5.134,  0.311
  2460,  5.371,  7.370, 65.641,  5.059,  0.245
  2520,  5.363,  7.430, 67.884,  5.178,  0.340
  2580,  5.264,  7.087, 66.940,  4.813,  0.301
  2640,  4.829,  6.477, 63.750,  4.693,  0.310
  2700,  4.849,  6.671, 64.132,  4.841,  0.276
  2760,  4.620,  5.861, 62.028,  4.520,  0.286
  2820,  4.512,  6.277, 59.858,  4.307,  0.228
  2880,  4.343,  5.870, 63.588,  4.591,  0.265
  2940,  4.060,  5.561, 61.776,  4.163,  0.297
  3000,  3.722,  5.310, 58.630,  4.077,  0.198
  3060,  2.920,  4.395, 54.549,  3.768,  0.279
  3120,  3.091,  4.623, 53.170,  3.668,  0.246
  3180,  3.475,  4.841, 66.673,  4.410,  0.321
  3240, -9999.000, -9999.000, -9999.000, -9999.000, -9999.000
  3300,  2.720,  3.727, 49.049,  3.457,  0.190
  3360,  2.659,  3.771, 46.599,  3.569,  0.227
  3420,  2.512,  3.727, 45.495,  3.515,  0.263
  3480,  2.419,  3.257, 42.089,  3.200,  0.189
  3540,  2.152,  2.705, 40.296,  3.325,  0.299
  3600,  2.126,  2.687, 38.984,  3.180,  0.231
  3660,  2.188,  2.898, 35.605,  3.049,  0.200
  3720,  2.241,  2.800, 34.946,  3.146,  0.293
  3780,  2.207,  2.767, 32.466,  3.162,  0.147
  3840,  2.186,  2.748, 29.923,  3.123,  0.164
  3900,  2.231,  2.477, 31.964,  3.118,  0.088
  3960,  2.199,  2.420, 31.546,  3.290,  0.150
  4020,  2.296,  2.720, 33.318,  3.419,  0.123
  4080,  2.305,  2.131, 32.203,  3.274,  0.142
  4140,  2.430,  2.745, 34.723,  3.534,  0.121
  4200,  2.447,  3.199, 36.730,  3.632,  0.067
  4260,  2.561,  3.033, 40.851,  3.769,  0.129
  4320,  2.634,  3.384, 40.192,  3.851,  0.070
  4380,  2.689,  3.413, 45.659,  3.887,  0.080
  4440,  2.674,  3.283, 46.589,  3.977,  0.141
  4500,  2.716,  3.405, 49.126,  4.064,  0.138
  4560,  2.744,  3.417, 52.210,  3.934,  0.180
  4620,  2.951,  3.915, 59.717,  4.246,  0.168
  4680,  2.936,  3.861, 64.567,  4.188,  0.135
  4740,  2.958,  4.436, 65.711,  4.221,  0.147
  4800,  3.151,  4.647, 69.976,  4.548,  0.201
  4860,  3.300,  5.033, 73.461,  4.814,  0.274
  4920,  3.263,  5.341, 75.940,  4.687,  0.206
  4980,  3.352,  5.114, 84.889,  4.985,  0.198
  5040,  3.577,  5.208, 90.129,  4.976,  0.241
  5100, -9999.000, -9999.000, -9999.000, -9999.000, -9999.000
  5160,  3.488,  5.077, 88.479,  4.826,  0.154
  5220,  3.723,  5.140, 102.388,  5.132,  0.198
  5280,  3.953,  5.450, 114.919,  5.230,  0.189
  5340,  4.198,  5.187, 124.726,  5.692,  0.126
  5400,  4.408,  5.327, 136.232,  5.917,  0.120
  5460,  4.332,  5.418, 142.282,  5.664,  0.092
  5520,  4.515,  5.192, 149.602,  6.169,  0.129
  5580,  4.378,  5.291, 147.384,  6.064,  0.142
  5640,  4.528,  5.309, 150.308,  6.258,  0.131
  5700,  5.113,  5.767, 156.336,  6.843,  0.125
  5760,  5.147,  6.242, 162.894,  7.212,  0.169
  5820,  5.527,  6.541, 164.450,  7.488,  0.253
  5880,  5.733,  6.902, 167.676,  8.045,  0.210
  5940,  6.055,  6.582, 169.506,  8.432,  0.334
  6000,  6.266,  7.057, 166.537,  8.534,  0.329
  6060,  6.457,  7.400, 167.155,  9.122,  0.333
  6120,  6.843,  7.061, 161.481,  9.412,  0.424
  6180,  7.036,  7.850, 158.665,  9.806,  0.359
  6240,  7.310,  7.852, 153.912, 10.019,  0.442
  6300,  7.010,  7.471, 147.995,  9.898,  0.434
  6360,  7.034,  7.574, 150.586,  9.968,  0.626
  6420,  7.071,  7.451, 148.900,  9.850,  0.529
  6480,  6.941,  7.270, 148.479,  9.492,  0.454
  6540,  7.069,  7.740, 150.808,  9.963,  0.532
  6600,  6.774,  7.095, 150.512,  9.335,  0.521
  6660,  6.645,  6.855, 149.722,  9.645,  0.532
  6720,  6.836,  6.930, 152.612,  9.666,  0.472
  6780,  6.707,  7.084, 152.667,  9.701,  0.445
  6840,  6.815,  7.079, 157.937,  9.298,  0.484
  6900,  6.978,  7.152, 160.233,  9.781,  0.664
  6960,  6.896,  7.298, 148.268,  9.639,  0.623
  7020,  7.008,  7.601, 154.032,  9.826,  0.667
  7080,  6.769,  7.582, 158.679,  9.486,  0.539
  7140,  7.094,  8.879, 161.952,  9.812,  0.561
  7200,  7.393,  9.323, 172.324, 10.462,  0.678
  7260,  8.784,  7.682, 186.367, 10.703,  0.595
  7320,  8.631,  8.588, 184.841, -2.262,  0.375
  7380,  8.120, 10.237, 180.466,  0.823,  0.601
  7440,  8.233,  9.794, 191.456,  5.965,  0.626
  7500,  8.377, 10.842, 194.989,  7.180,  0.699
  7560,  8.379, 11.814, 197.110,  8.377,  0.640
  7620,  8.698, 12.215, 195.275,  9.591,  0.772
  7680,  8.672, 12.135, 199.130, 10.038,  0.699
  7740,  8.298, 13.584, 188.179,  9.821,  0.747
  7800,  8.570, 14.167, 197.946, 10.499,  0.800
  7860,  8.805, 14.458, 195.549, 10.289,  0.662
  7920,  8.890, 14.463, 209.004, 11.289,  0.809
  7980,  9.012, 14.466, 202.621, 11.076,  0.750
  8040,  8.835, 14.770, 205.534, 11.780,  0.697
  8100,  8.887, 14.452, 201.790, 11.622,  0.842
  8160,  8.871, 15.059, 202.751, 11.710,  0.778
  8220,  8.721, 15.224, 199.044, 11.795,  0.712
  8280,  8.347, 15.355, 202.100, 11.344,  0.837
  8340,  8.090, 15.338, 197.428, 11.478,  0.775
  8400,  8.062, 16.231, 199.083, 11.441,  0.836
  8460,  7.974, 14.954, 194.313, 11.565,  0.835
  8520,  7.199, 15.128, 189.145, 10.631,  0.741
  8580,  6.310, 15.301, 178.870,  9.978,  0.863
  8640,  6.200, 14.619, 173.111,  9.397,  0.740
  8700,  6.040, 15.035, 170.370,  9.612,  0.684
  8760, -9999.000, -9999.000, -9999.000, -9999.000, -9999.000
  8820,  5.565, 14.824, 146.729,  8.997,  0.602
  8880,  5.553, 15.086, 157.385,  9.290,  0.759
  8940,  5.523, 14.674, 164.570,  9.096,  0.736
  9000,  5.696, 15.964, 170.806,  9.315,  0.762
  9060,  5.846, 15.827, 179.004,  9.165,  0.816
  9120,  6.023, 16.360, 183.504,  9.855,  0.766
  9180,  5.954, 16.827, 190.047,  9.846,  0.890
  9240,  6.148, 16.497, 188.247, 10.119,  0.985
  9300,  6.244, 16.679, 192.509, 10.141,  0.917
  9360,  6.079, 16.305, 190.997, 10.066,  0.845
  9420,  5.928, 16.681, 191.402,  9.610,  0.977
  9480,  5.929, 16.309, 186.960,  9.676,  1.035
  9540,  5.862, 16.020, 183.792,  9.638,  0.962
  9600,  6.299, 16.167, 189.561, 10.167,  1.167
  9660,  6.386, 16.393, 189.341, 10.094,  0.988
  9720,  6.058, 16.577, 193.177, 10.144,  1.051
  9780,  5.997, 15.930, 189.695,  9.755,  0.981
  9840,  5.939, 16.328, 189.478,  9.680,  1.121
  9900,  5.702, 15.472, 180.288,  9.413,  0.977
  9960,  5.444, 15.537, 179.179,  8.792,  1.149
 10020,  5.107, 14.875, 175.884,  8.329,  1.009
 10080,  4.936, 14.047, 171.761,  8.305,  0.823
 10140,  4.616, 13.147, 162.135,  7.691,  0.735
 10200,  4.694, 13.825, 158.380,  7.536,  0.731
 10260,  4.438, 13.139, 152.153,  7.103,  0.841
 10320,  4.285, 13.262, 146.322,  6.885,  0.824
 10380,  4.381, 13.964, 145.136,  6.738,  0.862
 10440,  4.210, 12.703, 142.092,  6.710,  0.826
 10500,  4.127, 13.137, 141.670,  6.637,  0.685
 10560,  4.210, 12.645, 139.961,  6.769,  0.540
 10620, -9999.000, -9999.000, -9999.000, -9999.000, -9999.000
 10680,  3.848, 11.809, 129.694,  6.121,  0.475
 10740,  3.862, 12.015, 129.583,  6.064,  0.574
 10800,  3.821, 11.890, 128.183,  6.234,  0.561
 10860,  3.648, 10.910, 123.703,  5.705,  0.466
 10920,  3.530, 11.048, 119.455,  5.384,  0.476
 10980,  3.436, 10.947, 118.538,  5.518,  0.451
 11040,  3.429, 11.084, 114.202,  5.412,  0.508
 11100,  3.285, 10.537, 110.587,  5.240,  0.458
 11160,  3.224, 10.726, 105.400,  5.284,  0.529
 11220,  3.139,  9.860, 103.602,  5.071,  0.463
 11280,  2.936,  9.006, 96.823,  4.514,  0.472
 11340,  2.672,  8.312, 88.962,  4.271,  0.388
 11400,  2.678,  7.937, 84.063,  3.729,  0.342
 11460,  2.556,  7.426, 82.788,  3.840,  0.301
 11520,  2.381,  6.758, 77.719,  3.598,  0.140
 11580,  2.422,  6.828, 77.615,  3.726,  0.111
 11640,  2.496,  7.520, 75.757,  3.758,  0.335
 11700,  2.505,  7.933, 77.306,  3.964,  0.156
 11760,  2.854,  8.421, 81.482,  4.334,  0.244
 11820,  2.960,  8.810, 88.505,  4.622,  0.176
 11880,  3.039,  9.078, 88.736,  4.647,  0.117
 11940,  3.028,  8.791, 89.433,  4.346,  0.064
 12000,  3.103,  8.435, 93.839,  4.713,  0.134
 12060,  3.052,  9.013, 94.499,  4.755,  0.168
 12120,  2.905,  8.774, 89.885,  4.483,  0.234
 12180,  3.004,  8.939, 91.419,  4.687,  0.384
 12240,  3.059,  8.968, 92.468,  4.783,  0.163
 12300,  3.155,  8.720, 95.931,  4.941,  0.380
 12360,  3.070,  8.401, 94.852,  4.571,  0.261
 12420,  3.131,  9.091, 97.700,  4.891,  0.470
 12480, -9999.000, -9999.000, -9999.000, -9999.000, -9999.000
 12540,  2.972,  8.702, 81.926,  4.915,  0.447
 12600,  2.999,  9.161, 90.301,  4.931,  0.563
 12660,  3.015,  9.240, 93.282,  4.721,  0.542
 12720,  3.026,  9.143, 94.931,  4.887,  0.589
 12780,  3.038,  9.252, 95.063,  4.645,  0.674
 12840,  2.963,  8.988, 95.316,  4.662,  0.663
 12900,  2.986,  9.425, 95.719,  4.579,  0.609
 12960,  2.935,  9.155, 94.190,  4.666,  0.717
 13020,  2.944,  9.202, 94.600,  4.602,  0.716
 13080,  2.864,  9.208, 94.619,  4.565,  0.656
 13140,  2.845,  8.726, 93.876,  4.433,  0.694
 13200,  2.861,  8.698, 92.036,  4.433,  0.735
 13260,  2.823,  9.126, 91.522,  4.412,  0.759
 13320,  2.809,  9.484, 91.425,  4.430,  0.736
 13380,  2.787,  9.041, 91.374,  4.293,  0.739
 13440,  2.944,  8.946, 93.134,  4.566,  0.758
 13500,  2.875,  9.071, 93.547,  4.492,  0.774
 13560,  2.988,  9.428, 95.657,  4.690,  0.809
 13620,  2.957,  9.417, 95.577,  4.697,  0.752
 13680,  3.007,  9.080, 96.023,  4.636,  0.772
 13740,  2.968,  8.624, 95.105,  4.673,  0.833
 13800,  3.050,  9.625, 96.442,  4.794,  0.874
 13860,  3.086,  9.702, 102.934,  5.127,  0.759
 13920,  3.297,  9.161, 106.804,  5.482,  0.675
 13980,  3.291,  9.141, 109.140,  5.365,  0.647
 14040,  3.371,  9.721, 110.539,  5.189,  0.815
 14100,  3.574,  9.405, 112.127,  5.724,  0.858
 14160,  3.965,  9.860, 116.366,  6.160,  0.759
 14220,  3.803,  9.543, 115.962,  6.227,  0.896
 14280,  3.821,  9.581, 118.223,  6.093,  0.896
 14340,  3.804,  8.986, 110.501,  6.783,  0.802
 14400,  3.679,  9.384, 111.493,  6.265,  1.080
 14460,  3.750,  9.313, 113.640,  6.241,  1.010
 14520,  3.792,  8.857, 115.020,  6.374,  1.028
 14580,  3.838,  9.130, 115.637,  6.486,  1.106
 14640,  3.870,  9.277, 118.457,  6.705,  1.016
 14700,  3.906,  8.966, 123.634,  6.524,  1.012
 14760,  3.834,  9.324, 123.030,  6.333,  0.929
 14820,  3.845,  9.514, 122.729,  6.805,  1.073
 14880,  3.892,  9.023, 121.882,  6.706,  1.027
 14940,  3.955,  9.320, 120.401,  7.393,  1.111
 15000,  3.965,  9.938, 120.153,  7.340,  1.118
 15060,  3.888,  9.760, 122.438,  7.442,  1.185
 15120,  3.983,  9.328, 119.572,  7.342,  0.900
 15180,  3.905,  9.171, 122.767,  7.185,  0.920
 15240,  3.934,  9.449, 125.101,  7.839,  1.097
 15300,  3.931,  9.665, 125.554,  7.851,  1.062
 15360,  4.007,  9.192, 124.724,  8.015,  0.871
 15420,  4.100, 10.237, 124.136,  8.333,  1.196
 15480,  4.072,  9.972, 124.189,  8.365,  1.072
 15540,  4.095,  9.689, 127.995,  8.471,  0.989
 15600,  4.128,  9.271, 126.481,  8.148,  0.903
 15660,  4.047,  8.898, 126.168,  7.440,  0.648
 15720,  4.106,  9.586, 129.720,  8.016,  0.920
 15780,  4.137,  9.186, 131.642,  8.169,  0.807
 15840,  4.322,  9.192, 130.541,  8.456,  0.779
 15900,  4.286,  9.407, 135.219,  8.556,  0.824
 15960,  4.181,  9.367, 131.710,  8.325,  0.761
 16020,  4.274,  9.907, 133.260,  8.225,  0.767
 16080,  4.221,  8.964, 133.194,  7.669,  0.651
 16140,  4.100, 10.457, 130.553,  7.937,  1.091
 16200,  4.015,  8.050, 115.014,  7.065,  0.535
 16260,  4.090,  9.060, 121.577,  7.543,  0.716
 16320,  4.155,  9.329, 126.735,  7.771,  0.742
 16380,  4.072,  9.156, 129.655,  7.591,  0.747
 16440,  4.000,  9.106, 128.475,  7.366,  0.738
 16500,  3.959,  8.628, 129.201,  7.325,  0.743
 16560,  3.933,  8.842, 128.837,  7.560,  0.721
 16620,  3.903,  8.843, 131.320,  7.035,  0.661
 16680,  3.891,  8.991, 130.830,  7.121,  0.676
 16740,  3.844,  8.683, 129.763,  6.967,  0.731
 16800,  3.832,  8.340, 130.606,  6.892,  0.679
 16860,  3.849,  8.553, 127.359,  6.998,  0.670
 16920,  3.725,  8.741, 125.632,  6.759,  0.678
 16980,  3.555,  8.078, 123.583,  6.477,  0.634
 17040,  3.572,  8.430, 123.939,  6.556,  0.707
 17100,  3.666,  8.247, 123.767,  6.381,  0.675
 17160,  3.602,  8.290, 126.009,  6.234,  0.772
 17220,  3.562,  8.527, 122.958,  6.369,  0.685
 17280,  3.563,  8.057, 125.249,  6.457,  0.729
 17340,  3.627,  8.400, 122.687,  6.233,  0.643
 17400,  3.504,  7.737, 121.778,  6.432,  0.657
 17460,  3.399,  8.219, 118.355,  6.111,  0.683
 17520,  3.433,  7.894, 118.670,  6.238,  0.641
 17580,  3.383,  8.179, 120.237,  6.037,  0.645
 17640,  3.443,  7.802, 119.634,  5.935,  0.584
 17700,  3.392,  8.023, 118.643,  5.945,  0.579
 17760,  3.262,  7.844, 115.806,  5.820,  0.537
 17820,  3.206,  7.234, 112.965,  5.726,  0.364
 17880,  3.197,  6.924, 109.113,  5.628,  0.264
 17940,  3.213,  7.323, 106.397,  5.422,  0.427
 18000,  3.201,  7.871, 106.564,  5.544,  0.701
 18060,  3.160,  7.483, 94.435,  5.370,  0.593
 18120,  3.219,  7.590, 100.444,  5.549,  0.650
 18180,  3.123,  7.373, 102.632,  5.725,  0.644
 18240,  3.104,  7.386, 103.235,  5.381,  0.707
 18300,  3.024,  7.471, 100.114,  5.331,  0.870
 18360,  3.047,  7.226, 100.213,  5.044,  0.686
 18420,  2.975,  7.277, 98.632,  5.240,  0.915
 18480,  2.933,  7.396, 97.821,  5.166,  0.967
 18540,  2.849,  7.032, 95.916,  5.291,  0.760
 18600,  2.871,  6.866, 99.718,  5.212,  0.961
 18660,  2.885,  7.317, 98.386,  5.210,  0.988
 18720,  2.879,  6.591, 96.799,  5.130,  0.880
 18780,  2.775,  6.897, 96.935,  4.937,  0.963
 18840,  2.724,  7.030, 93.892,  4.920,  0.712
 18900,  2.788,  7.167, 93.108,  4.934,  0.823
 18960,  2.767,  6.542, 90.490,  4.806,  0.765
 19020,  2.692,  6.910, 89.490,  4.935,  0.817
 19080,  2.673,  6.655, 91.069,  4.787,  0.683
 19140,  2.683,  6.607, 89.748,  4.621,  0.849
 19200,  2.626,  6.667, 86.697,  4.794,  0.848
 19260,  2.652,  6.369, 85.228,  4.780,  0.778
 19320,  2.609,  6.641, 85.624,  4.768,  0.883
 19380,  2.595,  6.508, 82.646,  4.934,  0.650
 19440,  2.594,  6.173, 81.595,  4.799,  0.756
 19500,  2.580,  6.472, 82.284,  4.772,  0.785
 19560,  2.534,  6.481, 82.315,  4.942,  0.785
 19620,  2.624,  6.633, 82.006,  4.613,  0.747
 19680,  2.567,  6.305, 80.317,  4.779,  0.736
 19740,  2.578,  6.345, 79.297,  4.919,  0.735
 19800,  2.555,  6.411, 80.280,  4.926,  0.725
 19860, -9999.000, -9999.000, -9999.000, -9999.000, -9999.000
 19920,  2.397,  6.059, 66.008,  4.498,  0.618
 19980,  2.393,  5.652, 67.733,  4.493,  0.556
 20040,  2.292,  5.344, 69.906,  4.632,  0.420
 20100,  2.299,  5.907, 70.858,  4.503,  0.593
 20160,  2.284,  5.614, 68.869,  4.388,  0.638
 20220,  2.317,  5.364, 68.259,  4.321,  0.621
 20280,  2.352,  5.521, 66.635,  4.216,  0.449
 20340,  2.299,  5.497, 65.964,  4.341,  0.487
 20400,  2.295,  5.459, 65.629,  4.159,  0.538
 20460,  2.262,  5.145, 63.050,  4.168,  0.466
 20520,  2.283,  5.140, 62.993,  4.278,  0.416
 20580,  2.260,  5.035, 65.340,  4.105,  0.487
 20640,  2.246,  5.162, 62.462,  3.977,  0.379
 20700,  2.237,  4.973, 63.010,  3.899,  0.349
 20760,  2.231,  4.857, 59.534,  3.953,  0.346
 20820,  2.166,  4.859, 59.842,  3.975,  0.477
 20880,  2.106,  4.562, 59.759,  3.929,  0.284
 20940,  2.174,  4.624, 55.020,  3.836,  0.271
 21000,  2.141,  4.438, 55.914,  3.686,  0.276
 21060,  2.243,  4.673, 56.855,  3.705,  0.227
 21120,  2.201,  4.783, 59.390,  4.073,  0.356
 21180,  2.272,  4.731, 64.746,  4.086,  0.481
 21240,  2.386,  4.842, 64.115,  4.286,  0.694
 21300,  2.289,  5.135, 65.796,  4.246,  0.844
 21360,  2.247,  4.672, 65.924,  4.265,  0.761
 21420,  2.296,  5.190, 64.731,  4.285,  0.977
 21480,  2.243,  4.831, 66.893,  3.840,  1.059
 21540,  2.262,  4.705, 66.680,  4.230,  1.057
 21600,  2.243,  4.833, 68.039,  4.108,  1.082
 21660,  2.146,  4.950, 68.866,  3.956,  1.164
 21720, -9999.000, -9999.000, -9999.000, -9999.000, -9999.000
 21780,  2.117,  4.502, 60.064,  3.805,  1.033
 21840,  2.133,  4.766, 62.238,  4.131,  1.137
 21900,  2.050,  4.476, 61.886,  3.809,  1.010
 21960,  2.066,  4.414, 60.889,  3.622,  1.028
 22020,  2.108,  4.283, 63.715,  3.718,  1.120
 22080,  2.056,  4.402, 62.541,  3.574,  0.867
 22140,  2.031,  4.223, 62.562,  3.705,  1.039
 22200,  2.031,  4.413, 59.800,  3.517,  1.013
 22260,  2.063,  4.279, 57.991,  3.336,  0.950
 22320,  1.928,  3.821, 57.306,  3.153,  0.672
 22380,  1.900,  3.418, 57.035,  3.100,  0.556
 22440,  1.934,  3.769, 53.844,  3.008,  0.769
 22500,  1.897,  4.145, 54.318,  2.976,  0.737
 22560,  1.831,  3.873, 55.069,  3.023,  0.742
 22620,  1.854,  3.953, 54.305,  2.967,  0.850
 22680,  1.893,  3.695, 53.753,  2.892,  0.793
 22740,  1.929,  3.585, 54.507,  3.086,  0.719
 22800,  1.884,  3.620, 53.632,  3.016,  0.752
 22860,  1.936,  3.370, 54.050,  3.110,  0.902
 22920,  1.939,  3.779, 53.764,  2.887,  0.834
 22980,  1.902,  3.937, 53.187,  2.944,  0.750
 23040,  1.936,  3.992, 57.269,  3.056,  0.859
 23100,  2.047,  3.882, 57.410,  3.168,  0.894
 23160,  2.391,  4.640, 62.183,  3.986,  1.301
 23220,  2.429,  4.460, 65.322,  4.344,  1.327
 23280,  2.657,  4.659, 66.573,  4.398,  1.379
 23340,  2.978,  4.950, 72.151,  5.691,  1.808
 23400,  3.014,  5.490, 74.346,  5.861,  1.940
 23460,  3.140,  5.545, 77.610,  6.099,  1.974
 23520,  3.207,  5.646, 81.008,  6.577,  2.131
 23580, -9999.000, -9999.000, -9999.000, -9999.000, -9999.000
 23640,  3.302,  5.841, 76.805,  6.567,  2.097
 23700,  3.262,  5.623, 81.495,  6.768,  2.144
 23760,  3.314,  5.994, 84.944,  7.112,  2.165
 23820,  3.454,  6.074, 86.723,  7.361,  2.313
 23880,  3.361,  5.879, 87.555,  7.097,  2.412
 23940,  3.382,  5.961, 87.906,  7.349,  2.389
 24000,  3.522,  6.075, 89.776,  7.688,  2.288
 24060,  3.575,  5.983, 91.541,  7.572,  2.179
 24120,  3.549,  6.278, 95.119,  8.187,  2.399
 24180,  3.546,  6.515, 95.535,  7.829,  2.261
 24240,  3.521,  6.605, 96.523,  8.011,  2.319
 24300,  3.492,  6.158, 95.168,  7.899,  2.324
 24360,  3.327,  5.880, 92.845,  7.243,  2.325
 24420,  2.931,  4.891, 88.388,  6.308,  2.069
 24480,  2.801,  5.139, 86.077,  5.662,  1.909
 24540,  2.723,  4.910, 83.431,  5.539,  1.885
 24600,  2.624,  4.688, 83.030,  5.278,  1.949
 24660,  2.550,  4.647, 80.792,  5.209,  1.815
 24720,  2.398,  4.427, 76.182,  4.810,  1.713
 24780,  2.301,  4.266, 74.283,  4.931,  1.515
 24840,  2.227,  4.235, 70.353,  4.524,  1.560
 24900,  2.123,  4.246, 67.493,  4.280,  1.480
 24960,  2.130,  4.344, 69.229,  4.227,  1.637
 25020,  2.105,  4.116, 68.426,  4.223,  1.500
 25080,  2.091,  4.234, 68.024,  4.204,  1.403
 25140,  2.089,  4.278, 67.884,  3.988,  1.610
 25200,  2.155,  4.054, 64.470,  4.295,  1.385
 25260,  2.183,  4.096, 65.773,  4.233,  1.470
 25320,  2.133,  4.193, 66.113,  4.338,  1.492
 25380,  2.123,  3.696, 63.355,  4.182,  1.532
 25440,  2.086,  4.180, 63.796,  4.201,  1.532
 25500,  2.046,  3.895, 62.170,  4.223,  1.490
 25560,  2.056,  4.170, 65.654,  4.176,  1.569
 25620,  2.134,  4.030, 65.285,  4.122,  1.551
 25680,  2.045,  4.312, 62.226,  4.098,  1.499
 25740,  2.026,  4.041, 62.598,  4.216,  1.516
 25800,  2.102,  4.430, 61.783,  4.338,  1.522
 25860,  2.161,  4.441, 62.721,  4.574,  1.691
 25920,  2.088,  4.455, 64.803,  4.399,  1.494
 25980,  2.088,  4.496, 66.455,  4.390,  1.364
 26040,  2.118,  4.175, 64.636,  4.477,  1.435
 26100,  2.180,  4.571, 64.091,  4.513,  1.458
 26160,  2.118,  4.619, 65.057,  4.554,  1.548
 26220,  2.231,  4.532, 64.415,  4.661,  1.580
 26280,  2.207,  4.446, 64.882,  4.867,  1.441
 26340,  2.190,  4.221, 62.819,  4.531,  1.522
 26400,  2.158,  4.324, 64.899,  4.642,  1.503
 26460,  2.153,  4.341, 65.896,  4.531,  1.518
 26520,  2.165,  4.473, 63.542,  4.527,  1.706
 26580,  2.157,  4.473, 65.083,  4.602,  1.598
 26640,  2.095,  4.364, 63.911,  4.535,  1.620
 26700,  2.122,  4.486, 62.725,  4.580,  1.667
 26760,  2.087,  4.493, 62.662,  4.501,  1.647
 26820,  2.133,  4.420, 60.723,  4.574,  1.720
 26880,  2.085,  4.651, 63.103,  4.434,  1.776
 26940,  2.134,  4.657, 64.064,  4.572,  1.905
 27000,  2.029,  4.518, 62.306,  4.294,  1.816
 27060,  2.142,  4.402, 61.780,  4.376,  1.902
 27120,  2.050,  4.400, 62.251,  4.367,  1.792
 27180,  2.101,  4.515, 60.037,  4.558,  1.769
 27240, -9999.000, -9999.000, -9999.000, -9999.000, -9999.000
 27300,  1.937,  3.744, 54.507,  4.295,  1.843
 27360,  2.029,  4.429, 57.142,  4.263,  1.908
 27420,  2.000,  4.320, 58.211,  4.461,  2.018
 27480,  2.056,  4.339, 57.866,  4.383,  2.141
 27540,  2.053,  4.496, 57.928,  4.382,  2.091
 27600,  2.075,  4.391, 57.370,  4.573,  2.068
 27660,  2.089,  4.353, 59.233,  4.463,  2.232
 27720,  2.021,  4.057, 60.720,  4.291,  2.132
 27780,  2.037,  4.119, 60.820,  4.237,  2.212
 27840,  2.097,  4.255, 60.415,  4.518,  2.196
 27900,  2.038,  4.215, 58.409,  4.419,  2.050
 27960,  2.053,  4.058, 58.638,  4.308,  2.116
 28020,  2.054,  4.064, 58.959,  4.580,  2.169
 28080,  2.045,  4.215, 60.273,  4.563,  2.180
 28140,  2.094,  4.238, 60.926,  4.259,  2.274
 28200,  2.099,  4.005, 59.142,  4.504,  2.279
 28260,  2.045,  3.968, 60.629,  4.462,  2.184
 28320,  2.042,  4.010, 59.399,  4.582,  2.113
 28380,  2.093,  3.961, 58.312,  4.526,  2.206
 28440,  2.115,  3.669, 61.230,  4.491,  2.110
 28500,  2.094,  4.008, 61.453,  4.507,  2.186
 28560,  2.090,  3.597, 59.627,  4.460,  2.218
 28620,  2.108,  3.747, 59.782,  4.488,  2.173
 28680,  2.039,  3.914, 59.433,  4.437,  2.124
 28740,  2.069,  3.691, 58.954,  4.353,  1.936
 28800,  2.087,  3.740, 61.160,  4.325,  1.919
 28860,  2.146,  3.842, 60.454,  4.424,  2.042
 28920,  2.112,  3.382, 61.705,  4.481,  1.818
 28980,  2.201,  3.853, 60.010,  4.627,  1.807
 29040,  2.179,  3.531, 60.413,  4.452,  1.580
 29100, -9999.000, -9999.000, -9999.000, -9999.000, -9999.000
 29160,  2.132,  3.245, 56.139,  4.286,  1.372
 29220,  2.125,  3.451, 58.782,  4.305,  1.403
 29280,  2.122,  3.497, 60.101,  4.350,  1.418
 29340,  2.128,  3.471, 61.456,  4.209,  1.185
 29400,  2.102,  3.549, 59.709,  3.990,  1.077
 29460,  2.113,  3.345, 60.764,  4.034,  1.183
 29520,  2.092,  3.439, 60.716,  4.056,  1.047
 29580,  2.001,  3.291, 61.281,  4.060,  1.025
 29640,  2.044,  3.344, 61.618,  3.997,  0.868
 29700,  2.064,  3.339, 62.530,  3.868,  0.936
 29760,  2.043,  3.231, 61.296,  3.840,  0.896
 29820,  1.896,  3.066, 60.270,  3.778,  0.633
 29880,  1.940,  3.003, 60.815,  3.702,  0.610
 29940,  1.967,  3.010, 63.612,  3.661,  0.620
 30000,  1.992,  3.328, 63.306,  3.516,  0.832
 30060,  2.014,  3.339, 63.808,  3.682,  0.885
 30120,  1.924,  3.149, 62.678,  3.693,  0.781
 30180,  1.969,  3.604, 62.244,  3.656,  0.880
 30240,  2.004,  3.259, 64.568,  3.844,  0.964
 30300,  1.952,  3.680, 63.560,  3.990,  0.866
 30360,  2.006,  3.579, 66.080,  4.039,  0.878
 30420,  2.044,  3.577, 66.164,  3.758,  1.100
 30480,  2.019,  3.493, 65.060,  4.014,  1.064
 30540,  2.017,  3.620, 65.329,  3.983,  1.097
 30600,  2.014,  3.369, 63.832,  3.777,  1.064
 30660,  1.977,  3.697, 64.747,  3.849,  1.036
 30720,  1.932,  3.678, 64.789,  3.978,  1.132
 30780,  1.918,  3.565, 64.073,  3.826,  1.115
 30840,  1.871,  3.539, 63.964,  3.936,  1.003
 30900,  1.948,  3.636, 61.901,  3.837,  1.033
 30960, -9999.000, -9999.000, -9999.000, -9999.000, -9999.000
 31020,  1.832,  3.291, 52.700,  3.690,  0.945
 31080,  1.937,  3.538, 58.283,  3.778,  1.079
 31140,  2.045,  3.728, 62.343,  4.143,  1.174
 31200,  2.082,  3.731, 62.847,  4.258,  1.089
 31260,  2.082,  3.913, 63.111,  4.147,  1.160
 31320,  2.016,  3.557, 64.324,  3.905,  1.047
 31380,  1.998,  3.702, 63.222,  4.226,  1.171
 31440,  2.037,  3.616, 65.965,  3.968,  1.192
 31500,  2.050,  3.758, 66.434,  3.989,  1.150
 31560,  2.003,  3.697, 66.642,  3.813,  1.165
 31620,  1.969,  3.388, 66.840,  3.919,  1.082
 31680,  1.915,  3.798, 65.219,  3.641,  1.303
 31740,  1.913,  3.315, 65.845,  3.962,  1.155
 31800,  1.888,  3.544, 64.047,  3.628,  1.266
 31860,  1.865,  3.673, 63.132,  3.542,  1.178
 31920,  1.814,  3.670, 64.767,  3.664,  1.171
 31980,  1.943,  3.439, 64.082,  3.499,  1.330
 32040,  1.849,  3.507, 64.027,  3.421,  1.139
 32100,  1.884,  3.746, 63.023,  3.604,  1.254
 32160,  1.864,  3.501, 62.084,  3.612,  1.092
 32220,  1.871,  3.475, 60.316,  3.515,  1.192
 32280,  1.873,  3.665, 61.580,  3.633,  1.224
 32340,  1.907,  3.378, 62.339,  3.514,  1.103
 32400,  1.934,  3.299, 63.239,  3.694,  1.207
 32460,  1.889,  3.204, 61.290,  3.547,  1.044
 32520,  1.876,  3.160, 60.203,  3.423,  1.201
 32580,  1.892,  3.283, 59.745,  3.501,  1.171
 32640,  2.005,  3.305, 60.051,  3.718,  1.242
 32700,  1.958,  3.694, 62.325,  3.521,  1.111
 32760,  1.869,  3.270, 63.181,  3.788,  1.342
 32820,  1.906,  3.266, 57.970,  3.667,  0.996
 32880,  1.974,  3.424, 57.342,  3.648,  1.403
 32940,  1.982,  3.627, 59.232,  3.841,  1.462
 33000,  2.016,  3.662, 59.301,  3.952,  1.509
 33060,  1.974,  3.812, 59.250,  3.942,  1.503
 33120,  2.067,  3.875, 62.213,  4.072,  1.693
 33180,  2.056,  3.587, 61.888,  4.114,  1.406
 33240,  2.076,  3.700, 61.873,  4.127,  1.692
 33300,  2.133,  3.888, 62.054,  4.165,  1.603
 33360,  2.072,  3.798, 61.866,  4.195,  1.817
 33420,  2.131,  3.901, 62.869,  4.101,  1.693
 33480,  2.074,  3.930, 64.079,  4.250,  1.762
 33540,  2.049,  3.466, 63.235,  4.131,  1.670
 33600,  1.971,  3.585, 62.272,  3.874,  1.563
 33660,  2.058,  3.774, 62.367,  3.916,  1.745
 33720,  2.049,  3.879, 62.883,  4.266,  1.736
 33780,  1.997,  3.841, 60.049,  3.928,  1.644
 33840,  2.012,  4.077, 61.000,  4.196,  1.759
 33900,  2.072,  3.735, 63.581,  4.186,  1.705
 33960,  2.003,  3.711, 62.101,  4.080,  1.564
 34020,  2.007,  3.765, 61.256,  3.932,  1.646
 34080,  1.992,  3.635, 61.070,  3.992,  1.586
 34140,  1.968,  3.707, 61.735,  4.032,  1.589
 34200,  1.928,  3.673, 59.392,  3.879,  1.460
 34260,  1.937,  3.601, 60.191,  3.974,  1.471
 34320,  1.980,  3.540, 61.276,  3.862,  1.404
 34380,  1.916,  3.581, 61.252,  3.973,  1.453
 34440,  1.990,  3.579, 59.894,  3.927,  1.620
 34500,  1.893,  3.809, 59.947,  3.855,  1.410
 34560,  1.940,  3.462, 60.755,  3.928,  1.456
 34620,  1.974,  4.003, 60.321,  3.202,  1.226
 34680,  1.924,  4.116, 51.878,  3.567,  1.724
 34740,  1.884,  3.550, 54.136,  3.586,  1.361
 34800,  1.888,  3.593, 56.114,  3.711,  1.332
 34860,  1.894,  3.347, 56.409,  3.987,  1.532
 34920,  1.864,  3.698, 55.647,  4.103,  1.422
 34980,  1.847,  3.530, 58.469,  3.916,  1.307
 35040,  1.925,  3.565, 58.748,  3.941,  1.458
 35100,  1.918,  3.696, 58.552,  3.835,  1.329
 35160,  1.883,  3.411, 57.848,  3.728,  1.439
 35220,  1.894,  3.714, 58.224,  3.928,  1.384
 35280,  1.917,  3.629, 57.451,  3.807,  1.324
 35340,  1.924,  3.196, 57.437,  3.757,  1.297
 35400,  1.930,  3.641, 60.832,  4.016,  1.351
 35460,  1.871,  3.726, 59.791,  3.903,  1.323
 35520,  1.883,  3.504, 58.309,  3.715,  1.302
 35580,  1.844,  3.450, 58.941,  3.807,  1.427
 35640,  1.812,  3.435, 58.983,  3.724,  1.374
 35700,  1.802,  3.393, 57.492,  3.572,  1.350
 35760,  1.872,  3.430, 59.868,  3.830,  1.411
 35820,  1.874,  3.594, 60.325,  3.776,  1.377
 35880,  1.900,  3.621, 59.597,  3.814,  1.387
 35940,  1.914,  3.505, 59.131,  3.799,  1.537
 36000,  1.897,  3.405, 59.124,  4.002,  1.516
 36060,  1.830,  3.645, 57.819,  3.770,  1.509
 36120,  1.857,  3.641, 59.014,  3.829,  1.501
 36180,  1.842,  3.561, 60.820,  3.723,  1.488
 36240,  1.816,  3.547, 58.879,  3.843,  1.538
 36300,  1.868,  3.706, 60.658,  3.827,  1.463
 36360,  1.854,  3.331, 59.081,  3.734,  1.531
 36420,  1.806,  3.512, 56.577,  3.730,  1.506
 36480,  1.911,  3.247, 56.562,  3.768,  1.332
 36540,  1.791,  3.300, 55.037,  3.722,  1.482
 36600,  1.843,  3.438, 56.331,  3.739,  1.488
 36660,  1.825,  3.386, 56.955,  3.512,  1.436
 36720,  1.824,  3.445, 58.242,  3.791,  1.555
 36780,  1.880,  3.509, 56.617,  3.851,  1.459
 36840,  1.893,  3.288, 57.380,  4.013,  1.483
 36900,  1.907,  3.439, 59.184,  3.812,  1.523
 36960,  1.804,  3.537, 57.231,  3.694,  1.548
 37020,  1.837,  3.364, 56.783,  3.885,  1.503
 37080,  1.831,  3.325, 57.880,  3.769,  1.510
 37140,  1.802,  3.147, 56.419,  3.426,  1.538
 37200,  1.880,  3.175, 58.000,  3.835,  1.474
 37260,  1.818,  3.414, 60.240,  3.612,  1.514
 37320,  1.899,  3.451, 59.355,  3.818,  1.447
 37380,  1.871,  3.353, 59.229,  3.686,  1.546
 37440,  1.852,  3.207, 59.421,  3.721,  1.508
 37500,  1.819,  3.215, 57.329,  3.793,  1.394
 37560,  1.835,  3.525, 57.058,  3.674,  1.523
 37620,  1.878,  3.474, 59.145,  3.957,  1.573
 37680,  1.868,  3.532, 58.800,  3.730,  1.485
 37740,  1.866,  3.337, 58.748,  3.554,  1.455
 37800,  1.879,  3.299, 57.977,  3.711,  1.450
 37860,  1.858,  3.470, 56.868,  3.907,  1.403
 37920,  1.818,  3.051, 56.777,  3.606,  1.556
 37980,  1.834,  3.106, 56.180,  3.423,  1.585
 38040,  1.948,  3.213, 57.626,  3.818,  1.623
 38100,  1.855,  3.565, 58.838,  3.780,  1.531
 38160,  1.794,  3.435, 55.187,  3.610,  1.486
 38220,  1.826,  3.212, 54.827,  3.580,  1.419
 38280,  1.786,  3.528, 53.458,  3.777,  1.571
 38340, -9999.000, -9999.000, -9999.000, -9999.000, -9999.000
 38400,  1.727,  3.049, 47.771,  3.730,  1.569
 38460,  1.851,  3.361, 48.819,  3.742,  1.551
 38520,  1.825,  3.089, 49.516,  3.749,  1.558
 38580,  1.834,  3.580, 50.396,  3.786,  1.510
 38640,  1.818,  3.007, 51.262,  3.781,  1.506
 38700,  1.836,  3.182, 52.224,  3.659,  1.469
 38760,  1.836,  3.425, 51.680,  3.820,  1.422
 38820,  1.780,  3.577, 51.892,  3.758,  1.405
 38880,  1.868,  3.552, 51.303,  3.511,  1.424
 38940,  1.781,  3.113, 48.406,  3.642,  1.394
 39000,  1.790,  3.189, 49.038,  3.607,  1.321
 39060,  1.833,  3.503, 50.779,  3.969,  1.410
 39120,  1.814,  3.355, 50.625,  3.794,  1.585
 39180,  1.872,  3.572, 50.341,  3.924,  1.562
 39240,  1.880,  3.186, 50.691,  4.101,  1.744
 39300,  1.922,  3.447, 48.815,  4.042,  1.898
 39360,  1.889,  3.692, 50.911,  4.310,  2.189
 39420,  1.965,  3.528, 51.620,  4.487,  2.452
 39480,  1.906,  3.547, 52.056,  4.380,  2.353
 39540,  1.929,  3.314, 50.210,  4.377,  2.259
 39600,  1.958,  3.642, 49.955,  4.562,  2.443
 39660,  1.926,  3.688, 47.493,  4.716,  2.600
 39720,  1.966,  3.698, 49.379,  4.673,  2.594
 39780,  1.901,  3.631, 50.108,  4.478,  2.572
 39840,  1.922,  3.796, 50.166,  4.578,  2.715
 39900,  1.865,  3.353, 48.329,  4.427,  2.512
 39960,  1.845,  3.921, 47.593,  4.205,  2.538
 40020,  1.869,  3.387, 47.029,  4.412,  2.468
 40080,  1.882,  3.512, 47.061,  4.384,  2.220
 40140,  1.874,  3.718, 47.186,  4.383,  2.345
 40200, -9999.000, -9999.000, -9999.000, -9999.000, -9999.000
 40260,  1.761,  3.171, 41.302,  4.235,  1.878
 40320,  1.817,  3.071, 42.850,  4.153,  1.951
 40380,  1.695,  3.031, 43.213,  3.952,  1.721
 40440,  1.800,  3.250, 44.960,  4.111,  1.869
 40500,  1.779,  3.039, 46.278,  4.206,  1.938
 40560,  1.742,  3.343, 45.415,  3.913,  1.743
 40620,  1.694,  3.207, 43.876,  3.771,  1.439
 40680,  1.717,  2.985, 44.751,  3.770,  1.459
 40740,  1.654,  2.978, 46.109,  3.879,  1.451
 40800,  1.742,  3.063, 46.182,  3.858,  1.532
 40860,  1.704,  3.014, 48.647,  3.838,  1.542
 40920,  1.706,  3.055, 46.614,  3.584,  1.639
 40980,  1.664,  3.314, 46.090,  3.726,  1.667
 41040,  1.701,  3.057, 47.216,  3.936,  1.648
 41100,  1.791,  3.114, 49.050,  3.915,  1.889
 41160,  1.794,  3.230, 50.061,  3.929,  1.838
 41220,  1.789,  2.996, 49.588,  4.137,  1.810
 41280,  1.772,  3.149, 49.495,  3.888,  1.723
 41340,  1.772,  3.043, 47.407,  3.892,  1.810
 41400,  1.843,  3.292, 50.445,  4.116,  1.777
 41460,  1.856,  3.245, 52.009,  4.077,  1.933
 41520,  1.897,  3.405, 52.047,  3.930,  1.849
 41580,  1.903,  3.254, 50.246,  4.017,  1.799
 41640,  1.899,  3.431, 51.581,  4.100,  2.074
 41700,  1.929,  3.237, 51.849,  4.237,  2.028
 41760,  1.851,  3.444, 53.290,  4.114,  1.963
 41820,  2.020,  3.300, 54.287,  4.278,  2.027
 41880,  2.003,  3.107, 53.797,  4.373,  2.113
 41940,  1.967,  3.513, 53.146,  4.202,  2.074
 42000,  1.929,  3.367, 52.946,  4.108,  2.138
 42060, -9999.000, -9999.000, -9999.000, -9999.000, -9999.000
 42120,  1.892,  3.052, 47.787,  4.207,  1.972
 42180,  2.034,  3.238, 50.897,  4.157,  1.979
 42240,  2.024,  3.274, 51.210,  4.281,  2.129
 42300,  2.019,  3.329, 50.113,  4.204,  2.223
 42360,  2.029,  3.437, 51.953,  4.643,  2.224
 42420,  1.922,  3.405, 50.094,  4.349,  2.199
 42480,  2.019,  3.503, 52.482,  4.271,  2.177
 42540,  2.035,  3.486, 52.243,  4.259,  2.122
 42600,  2.055,  3.314, 51.772,  4.411,  2.110
 42660,  1.974,  3.367, 51.433,  4.206,  2.219
 42720,  2.020,  3.340, 49.756,  4.081,  1.891
 42780,  1.985,  3.087, 48.843,  4.259,  2.015
 42840,  1.885,  3.520, 50.387,  4.214,  2.014
 42900,  1.972,  3.262, 51.779,  4.158,  2.383
 42960,  1.919,  3.117, 49.992,  4.271,  2.125
 43020,  1.857,  3.095, 49.809,  4.101,  2.073
 43080,  1.937,  3.294, 48.597,  4.166,  1.981
 43140,  1.883,  3.187, 47.171,  3.943,  1.672
 43200,  1.962,  2.917, 48.265,  4.171,  1.711
 43260,  1.913,  3.243, 50.164,  3.781,  1.639
 43320,  1.736,  2.978, 47.525,  3.765,  1.533
 43380,  1.803,  2.986, 46.311,  3.912,  1.407
 43440,  1.757,  2.775, 46.536,  3.972,  1.458
 43500,  1.757,  2.807, 45.721,  3.853,  1.279
 43560,  1.821,  3.304, 49.323,  4.008,  1.566
 43620,  1.827,  3.318, 49.011,  4.093,  1.866
 43680,  1.866,  3.467, 49.890,  4.166,  1.908
 43740,  1.838,  3.377, 49.173,  4.293,  2.120
 43800,  1.868,  3.035, 48.298,  4.100,  1.873
 43860,  1.852,  3.128, 48.308,  4.241,  1.901
 43920,  1.825,  2.973, 43.680,  4.257,  2.041
 43980,  1.879,  3.053, 45.569,  4.096,  2.068
 44040,  1.883,  3.225, 46.827,  4.209,  2.166
 44100,  1.886,  3.610, 46.090,  4.203,  2.363
 44160,  1.938,  3.228, 46.610,  4.275,  2.446
 44220,  1.872,  3.337, 48.069,  4.178,  2.305
 44280,  1.842,  3.077, 48.016,  4.305,  2.118
 44340,  1.806,  3.249, 47.068,  4.163,  2.136
 44400,  1.853,  3.143, 46.607,  4.105,  2.193
 44460,  1.848,  2.983, 45.075,  4.017,  2.010
 44520,  1.805,  3.208, 45.436,  4.082,  2.168
 44580,  1.826,  3.051, 45.895,  4.231,  1.954
 44640,  1.799,  3.202, 47.170,  4.126,  1.910
 44700,  1.833,  3.062, 48.194,  4.112,  1.921
 44760,  1.757,  2.915, 45.396,  4.131,  1.818
 44820,  1.838,  3.194, 45.283,  4.171,  1.827
 44880,  1.871,  2.840, 45.574,  4.058,  1.847
 44940,  1.850,  3.249, 46.158,  4.070,  1.880
 45000,  1.789,  3.029, 46.137,  3.946,  1.843
 45060,  1.833,  3.172, 45.370,  4.164,  1.719
 45120,  1.803,  3.162, 44.190,  3.964,  1.852
 45180,  1.796,  3.253, 44.075,  3.938,  1.718
 45240,  1.823,  3.127, 46.405,  3.830,  1.608
 45300,  1.887,  3.149, 46.486,  4.014,  1.665
 45360,  1.838,  3.257, 45.204,  4.043,  1.789
 45420,  1.840,  2.964, 45.458,  3.881,  1.838
 45480,  1.844,  3.122, 44.720,  4.027,  1.728
 45540,  1.917,  3.105, 46.264,  4.067,  1.836
 45600,  1.895,  3.017, 46.048,  4.038,  1.873
 45660,  1.877,  3.143, 44.925,  4.013,  1.687
 45720, -9999.000, -9999.000, -9999.000, -9999.000, -9999.000
 45780,  1.811,  2.492, 36.917,  3.693,  1.410
 45840,  1.840,  3.152, 38.966,  3.908,  1.649
 45900,  1.849,  2.981, 42.852,  3.979,  1.722
 45960,  1.814,  3.026, 41.845,  3.929,  1.694
 46020,  1.783,  2.934, 41.979,  3.790,  1.587
 46080,  1.851,  3.060, 42.249,  3.876,  1.531
 46140,  1.799,  2.881, 41.739,  3.952,  1.653
 46200,  1.786,  3.157, 41.959,  3.882,  1.604
 46260,  1.835,  3.047, 43.248,  3.934,  1.550
 46320,  1.832,  3.106, 43.520,  4.108,  1.499
 46380,  1.808,  2.967, 41.527,  3.940,  1.495
 46440,  1.838,  3.398, 42.132,  3.818,  1.647
 46500,  1.825,  3.229, 42.766,  3.855,  1.648
 46560,  1.867,  2.923, 42.727,  3.888,  1.521
 46620,  1.841,  3.170, 42.572,  4.036,  1.512
 46680,  1.836,  3.409, 43.014,  3.878,  1.433
 46740,  1.833,  3.098, 39.693,  3.910,  1.538
 46800,  1.848,  3.243, 40.678,  3.741,  1.582
 46860,  1.924,  3.796, 45.073,  4.286,  2.134
 46920,  2.000,  4.131, 47.986,  4.513,  2.421
 46980,  2.020,  3.827, 48.258,  4.416,  2.075
 47040,  1.942,  3.651, 45.971,  4.351,  1.927
 47100,  1.954,  3.292, 43.897,  4.058,  1.858
 47160,  1.877,  3.456, 44.149,  4.149,  1.546
 47220,  1.851,  3.362, 44.469,  4.016,  1.763
 47280,  1.880,  3.057, 43.177,  4.127,  1.474
 47340,  1.935,  3.284, 42.721,  4.038,  1.478
 47400,  1.858,  3.302, 42.707,  3.916,  1.467
 47460,  1.844,  2.914, 40.338,  4.044,  1.337
 47520,  1.815,  3.203, 41.743,  3.854,  1.393
 47580, -9999.000, -9999.000, -9999.000, -9999.000, -9999.000
 47640,  1.833,  3.119, 37.216,  4.002,  1.273
 47700,  1.849,  3.123, 37.613,  4.069,  1.298
 47760,  1.856,  3.177, 38.855,  3.954,  1.308
 47820,  1.880,  3.437, 38.618,  3.778,  1.387
 47880,  1.827,  3.242, 39.388,  3.532,  1.306
 47940,  1.826,  3.106, 40.189,  3.656,  1.221
 48000,  1.814,  3.226, 39.209,  3.808,  1.372
 48060,  1.917,  3.452, 38.785,  3.883,  1.308
 48120,  1.819,  3.272, 38.241,  3.720,  1.307
 48180,  1.833,  3.327, 38.976,  3.884,  1.166
 48240,  1.925,  3.354, 39.670,  3.789,  1.320
 48300,  1.933,  3.453, 40.926,  3.683,  1.291
 48360,  1.816,  3.413, 40.300,  3.712,  1.259
 48420,  1.845,  3.136, 39.963,  3.635,  1.194
 48480,  1.821,  3.349, 39.577,  3.690,  1.132
 48540,  1.895,  3.364, 38.154,  3.618,  0.997
 48600,  1.851,  3.194, 40.237,  3.749,  1.202
 48660,  1.909,  3.224, 41.487,  3.752,  1.317
 48720,  1.943,  3.119, 41.426,  3.767,  1.332
 48780,  1.948,  3.786, 41.921,  3.562,  1.320
 48840,  1.976,  3.783, 41.155,  3.825,  1.391
 48900,  2.057,  3.657, 41.994,  3.899,  1.532
 48960,  2.069,  3.742, 42.111,  3.947,  1.434
 49020,  2.058,  3.820, 44.770,  4.144,  1.561
 49080,  2.173,  3.929, 42.746,  4.195,  1.600
 49140,  2.210,  3.966, 42.323,  4.300,  1.683
 49200,  2.215,  3.786, 42.468,  4.141,  1.663
 49260,  2.214,  4.251, 44.613,  4.088,  1.527
 49320,  2.280,  4.296, 44.439,  4.117,  1.554
 49380,  2.314,  4.292, 42.846,  4.023,  1.491
 49440, -9999.000, -9999.000, -9999.000, -9999.000, -9999.000
 49500,  2.287,  4.432, 39.355,  4.129,  1.708
 49560,  2.252,  4.512, 41.465,  4.167,  1.737
 49620,  2.263,  4.662, 42.497,  4.060,  1.793
 49680,  2.298,  4.880, 43.330,  4.214,  1.639
 49740,  2.280,  4.915, 42.138,  4.186,  1.580
 49800,  2.259,  4.999, 42.509,  3.896,  1.669
 49860,  2.297,  5.364, 40.984,  3.913,  1.393
 49920,  2.292,  5.104, 43.602,  4.052,  1.519
 49980,  2.213,  4.950, 43.533,  3.774,  1.417
 50040,  2.287,  4.548, 44.328,  3.950,  1.353
 50100,  2.228,  4.643, 43.052,  3.841,  1.343
 50160,  2.283,  5.472, 43.686,  3.632,  1.405
 50220,  2.282,  5.310, 44.188,  3.943,  1.420
 50280,  2.238,  5.338, 43.395,  3.910,  1.372
 50340,  2.248,  5.686, 44.189,  3.920,  1.421
 50400,  2.400,  6.766, 45.501,  4.056,  1.481
 50460,  2.655,  8.305, 45.097,  4.501,  1.801
 50520,  2.810,  9.308, 45.043,  4.712,  1.920
 50580,  2.841,  9.550, 45.208,  4.653,  1.976
 50640,  2.829, 10.374, 44.892,  4.814,  2.062
 50700,  2.888, 10.600, 44.262,  4.588,  2.069
 50760,  2.648,  9.293, 43.620,  4.379,  1.911
 50820,  2.535,  7.436, 42.308,  4.264,  1.691
 50880,  2.514,  7.127, 42.815,  4.005,  1.498
 50940,  2.553,  7.340, 43.136,  4.068,  1.590
 51000,  2.561,  7.281, 42.339,  3.871,  1.660
 51060,  2.570,  7.471, 42.124,  4.026,  1.534
 51120,  2.767,  8.706, 43.399,  4.290,  1.757
 51180,  2.961, 10.093, 42.701,  4.495,  1.699
 51240,  3.000, 10.826, 42.218,  4.713,  1.755
 51300,  3.214, 10.904, 39.812,  4.628,  1.597
 51360,  3.179, 12.033, 42.087,  4.810,  1.911
 51420,  3.161, 12.427, 44.787,  4.961,  2.061
 51480,  3.197, 12.829, 43.330,  4.832,  1.942
 51540,  3.285, 12.080, 42.483,  4.812,  2.193
 51600,  3.346, 12.764, 41.282,  5.004,  2.377
 51660,  3.418, 12.793, 41.700,  5.197,  2.280
 51720,  3.581, 13.444, 41.189,  5.121,  2.457
 51780,  3.614, 14.366, 41.546,  5.052,  2.548
 51840,  3.650, 14.868, 42.101,  5.281,  2.422
 51900,  3.668, 13.881, 39.428,  5.185,  2.499
 51960,  3.712, 14.011, 41.460,  5.401,  2.276
 52020,  3.721, 14.596, 44.244,  5.731,  2.648
 52080,  3.710, 14.549, 43.569,  5.386,  2.528
 52140,  3.509, 14.131, 41.923,  5.001,  2.222
 52200,  3.517, 14.453, 42.469,  4.797,  2.201
 52260,  3.482, 13.979, 42.567,  4.979,  2.025
 52320,  3.528, 14.265, 44.223,  4.790,  2.207
 52380,  3.314, 14.092, 42.472,  4.729,  1.947
 52440,  3.289, 13.532, 42.286,  4.243,  1.420
 52500,  3.514, 15.707, 44.738,  4.736,  1.795
 52560,  3.609, 14.809, 44.652,  4.602,  1.682
 52620,  3.575, 16.010, 44.590,  4.608,  1.692
 52680,  3.423, 14.585, 45.085,  4.463,  1.603
 52740,  3.538, 16.795, 44.985,  4.487,  1.584
 52800,  3.666, 18.789, 46.118,  4.303,  1.452
 52860,  3.700, 18.444, 46.228,  4.428,  1.593
 52920,  3.778, 17.964, 46.153,  4.372,  1.516
 52980,  4.022, 18.394, 46.886,  4.787,  1.553
 53040,  3.968, 17.878, 46.158,  4.722,  1.613
 53100,  4.713, 18.149, 51.979,  4.467,  0.348
 53160,  3.884, 17.435, 38.528,  4.259,  1.477
 53220,  3.953, 15.728, 42.421,  4.837,  1.325
 53280,  4.103, 15.844, 46.018,  4.723,  1.482
 53340,  3.965, 13.771, 46.747,  4.976,  1.422
 53400,  4.044, 13.834, 47.243,  5.016,  1.437
 53460,  4.109, 15.048, 48.415,  4.889,  1.578
 53520,  4.202, 16.091, 49.479,  5.080,  1.496
 53580,  4.440, 17.150, 48.909,  5.209,  1.565
 53640,  4.483, 17.166, 48.865,  4.988,  1.600
 53700,  4.451, 17.607, 49.415,  5.094,  1.502
 53760,  4.428, 14.055, 49.888,  5.320,  1.562
 53820,  4.475, 15.148, 51.436,  5.202,  1.456
 53880,  4.600, 16.945, 51.708,  5.393,  1.540
 53940,  4.653, 16.236, 52.677,  5.587,  1.421
 54000,  4.693, 16.346, 52.336,  5.478,  1.533
 54060,  4.744, 16.285, 51.824,  5.314,  1.301
 54120,  4.881, 15.051, 52.545,  5.704,  1.491
 54180,  4.974, 15.544, 52.810,  5.705,  1.294
 54240,  5.143, 16.793, 53.608,  5.874,  1.446
 54300,  5.151, 17.394, 54.425,  6.144,  1.704
 54360,  5.108, 17.858, 53.320,  5.788,  1.410
 54420,  5.372, 17.292, 53.575,  6.103,  1.548
 54480,  5.477, 15.973, 54.172,  6.620,  1.497
 54540,  5.731, 15.735, 56.432,  6.819,  1.660
 54600,  5.794, 16.682, 54.727,  6.792,  1.520
 54660,  5.803, 17.174, 56.605,  6.934,  1.544
 54720,  5.984, 17.494, 56.781,  6.990,  1.620
 54780,  5.907, 16.329, 55.513,  6.879,  1.586
 54840,  5.980, 17.170, 56.042,  6.956,  1.490
 54900,  5.910, 16.735, 56.895,  6.607,  1.541
 54960,  5.857, 14.969, 55.207,  6.507,  1.443
 55020,  5.936, 16.764, 50.587,  6.425,  1.436
 55080,  6.175, 19.268, 51.297,  6.811,  1.523
 55140,  6.527, 21.117, 51.729,  6.815,  1.634
 55200,  6.472, 22.280, 52.310,  7.023,  1.703
 55260,  6.670, 22.520, 55.094,  6.944,  1.740
 55320,  6.845, 22.662, 53.665,  6.910,  1.473
 55380,  7.537, 28.498, 50.963,  6.983,  1.674
 55440,  7.820, 29.480, 53.919,  6.881,  1.770
 55500,  7.521, 27.599, 48.988,  7.248,  1.571
 55560,  7.912, 28.858, 55.281,  7.962,  1.903
 55620,  7.926, 27.421, 49.353,  7.296,  1.557
 55680,  8.285, 29.851, 53.517,  7.342,  1.820
 55740,  8.853, 32.673, 50.268,  7.681,  1.684
 55800,  8.762, 33.711, 53.732,  7.502,  1.820
 55860,  8.221, 28.075, 50.521,  7.656,  1.696
 55920,  7.875, 24.214, 54.750,  7.372,  1.844
 55980,  8.205, 26.858, 51.777,  7.228,  1.446
 56040,  8.390, 26.329, 54.399,  7.371,  1.597
 56100,  8.428, 28.362, 51.615,  7.468,  1.697
 56160,  8.557, 29.028, 53.570,  7.406,  1.618
 56220,  8.624, 28.478, 53.954,  7.550,  1.812
 56280,  8.955, 28.421, 52.534,  7.766,  1.683
 56340,  9.422, 32.252, 53.889,  7.810,  1.685
 56400,  9.643, 33.081, 51.554,  7.979,  1.662
 56460,  9.509, 32.025, 51.205,  7.764,  1.656
 56520,  9.766, 31.635, 50.523,  7.859,  1.586
 56580, 10.317, 34.419, 52.581,  8.235,  1.812
 56640, 10.762, 36.242, 50.696,  8.335,  1.796
 56700, 10.513, 34.672, 50.383,  8.374,  1.651
 56760, -9999.000, -9999.000, -9999.000, -9999.000, -9999.000
 56820, -9999.000, -9999.000, -9999.000, -9999.000, -9999.000
 56880, -9999.000, -9999.000, -9999.000, -9999.000, -9999.000
 56940, -9999.000, -9999.000, -9999.000, -9999.000, -9999.000
 57000, -9999.000, -9999.000, -9999.000, -9999.000, -9999.000
 57060, -9999.000, -9999.000, -9999.000, -9999.000, -9999.000
 57120, -9999.000, -9999.000, -9999.000, -9999.000, -9999.000
 57180, -9999.000, -9999.000, -9999.000, -9999.000, -9999.000
 57240, -9999.000, -9999.000, -9999.000, -9999.000, -9999.000
 57300, -9999.000, -9999.000, -9999.000, -9999.000, -9999.000
 57360, -9999.000, -9999.000, -9999.000, -9999.000, -9999.000
 57420, -9999.000, -9999.000, -9999.000, -9999.000, -9999.000
 57480, -9999.000, -9999.000, -9999.000, -9999.000, -9999.000
 57540, -9999.000, -9999.000, -9999.000, -9999.000, -9999.000
 57600, -9999.000, -9999.000, -9999.000, -9999.000, -9999.000
 57660, -9999.000, -9999.000, -9999.000, -9999.000, -9999.000
 57720, -9999.000, -9999.000, -9999.000, -9999.000, -9999.000
 57780, -9999.000, -9999.000, -9999.000, -9999.000, -9999.000
 57840, -9999.000, -9999.000, -9999.000, -9999.000, -9999.000
 57900, -9999.000, -9999.000, -9999.000, -9999.000, -9999.000
 57960, -9999.000, -9999.000, -9999.000, -9999.000, -9999.000
 58020, 12.493, 35.577, 67.096,  9.563,  1.889
 58080, 12.813, 35.092, 59.040,  9.174,  1.454
 58140, 13.433, 36.758, 61.310,  9.311,  1.623
 58200, 13.530, 35.618, 57.304,  9.389,  1.534
 58260, 13.681, 36.577, 58.907,  9.358,  1.577
 58320, 13.988, 35.748, 57.179,  9.295,  1.683
 58380, 13.863, 35.184, 56.428,  9.474,  1.782
 58440, 13.542, 34.710, 54.813,  8.999,  1.414
 58500, 13.091, 34.172, 56.117,  9.159,  1.638
 58560, 13.146, 33.125, 58.606,  9.369,  1.724
 58620, 13.504, 34.180, 58.432,  9.220,  1.504
 58680, 13.462, 32.861, 57.359,  9.202,  1.712
 58740, 13.230, 33.085, 55.092,  9.051,  1.633
 58800, 13.491, 32.492, 55.523,  8.854,  1.480
 58860, 13.715, 33.247, 55.651,  9.398,  1.807
 58920, 13.915, 33.963, 56.384,  9.467,  1.658
 58980, 13.878, 34.697, 57.195,  9.260,  1.749
 59040, 13.390, 30.856, 55.269,  8.934,  1.600
 59100, 12.859, 30.724, 53.228,  8.896,  1.734
 59160, 12.774, 31.044, 52.429,  8.812,  1.390
 59220, 11.151, 26.027, 52.157,  7.720,  1.408
 59280, 10.381, 24.001, 48.522,  7.878,  1.377
 59340, 10.655, 24.287, 48.496,  7.489,  1.308
 59400, 11.160, 26.295, 50.748,  7.842,  1.429
 59460, 11.204, 25.557, 49.323,  7.563,  1.348
 59520, 10.543, 24.781, 50.638,  7.464,  1.468
 59580,  9.970, 23.423, 51.278,  7.219,  1.204
 59640, 10.063, 23.704, 50.863,  6.928,  1.293
 59700, 10.646, 26.070, 52.384,  7.303,  1.208
 59760, 10.446, 24.297, 49.753,  7.214,  1.182
 59820, 10.285, 23.952, 50.746,  7.148,  0.815
 59880, 10.173, 23.824, 54.391,  6.528,  1.045
 59940, 10.905, 27.081, 56.936,  7.171,  1.323
 60000, -9999.000, -9999.000, -9999.000, -9999.000, -9999.000
 60060, 10.107, 25.739, 47.675,  7.047,  0.956
 60120, 10.397, 27.793, 52.007,  7.364,  1.313
 60180, 11.151, 27.516, 52.332,  7.560,  1.318
 60240, 11.011, 25.986, 55.070,  7.548,  1.236
 60300, 11.054, 25.927, 55.529,  7.204,  1.239
 60360, 10.465, 23.311, 54.038,  7.026,  0.767
 60420, 10.754, 27.133, 57.617,  7.184,  1.248
 60480, 10.483, 26.696, 57.872,  7.341,  1.344
 60540, 10.800, 26.670, 60.860,  6.965,  1.377
 60600, 11.103, 27.517, 60.964,  7.026,  1.276
 60660, 10.852, 25.624, 61.571,  7.342,  1.247
 60720, 11.150, 25.752, 61.553,  7.458,  1.235
 60780, 10.947, 26.272, 61.827,  7.436,  1.426
 60840, 10.690, 24.112, 61.951,  7.175,  0.892
 60900, 11.147, 25.604, 61.209,  7.482,  1.189
 60960, 11.012, 24.812, 62.984,  7.587,  1.374
 61020, 10.945, 24.714, 61.734,  7.766,  1.148
 61080, 11.146, 25.226, 64.458,  7.624,  1.190
 61140, 11.007, 24.655, 62.883,  7.339,  1.093
 61200, 11.500, 24.776, 61.343,  7.767,  1.270
 61260, 11.481, 24.854, 62.772,  7.886,  1.271
 61320, 11.796, 24.067, 60.387,  7.438,  0.937
 61380, 11.691, 24.046, 59.756,  7.704,  1.145
 61440, 11.769, 25.556, 62.115,  7.694,  0.969
 61500, 11.722, 24.542, 64.182,  7.610,  1.182
 61560, 11.495, 24.847, 63.595,  7.465,  0.880
 61620, 11.433, 24.232, 63.839,  6.970,  0.874
 61680, 11.518, 25.173, 63.725,  7.024,  0.863
 61740, 11.673, 26.512, 64.777,  7.382,  1.172
 61800, 11.138, 25.352, 62.524,  7.303,  1.060
 61860, -9999.000, -9999.000, -9999.000, -9999.000, -9999.000
 61920, 11.440, 23.362, 56.939,  7.574,  0.637
 61980, 10.995, 23.382, 59.694,  7.415,  0.717
 62040, 10.539, 23.854, 61.959,  7.266,  0.611
 62100, 10.836, 24.453, 63.509,  7.126,  0.968
 62160, 11.031, 23.765, 63.040,  7.065,  0.724
 62220, 11.318, 24.513, 64.828,  7.624,  0.322
 62280, 11.632, 26.613, 66.181,  7.805,  1.053
 62340, 11.069, 24.741, 63.376,  7.682,  0.667
 62400, 10.329, 22.388, 61.876,  7.465,  0.695
 62460, 10.562, 21.990, 61.367,  7.241,  0.612
 62520, 10.688, 22.658, 61.541,  7.631,  0.759
 62580, 11.055, 24.144, 63.924,  7.830,  0.777
 62640, 11.673, 23.971, 65.831,  7.938,  1.044
 62700, 11.721, 26.094, 66.984,  7.815,  1.026
 62760, 11.633, 24.457, 65.900,  7.601,  0.973
 62820, 11.544, 22.693, 62.189,  7.929,  0.979
 62880, 11.778, 25.353, 67.348,  8.128,  0.906
 62940, 12.006, 23.165, 63.413,  8.131,  0.976
 63000, 12.010, 20.791, 58.182,  8.529,  0.858
 63060, 12.158, 20.606, 58.467,  8.423,  0.848
 63120, 11.784, 20.164, 57.031,  8.369,  0.748
 63180, 11.082, 18.138, 55.446,  7.333,  0.533
 63240, 11.261, 20.519, 55.436,  7.983,  0.291
 63300, 11.478, 21.885, 57.655,  7.911,  0.673
 63360, 10.794, 20.542, 55.124,  7.920,  0.701
 63420, 10.958, 18.287, 53.323,  7.160,  0.457
 63480, 11.028, 20.059, 53.850,  7.905,  0.554
 63540, 10.857, 19.351, 51.826,  7.464,  0.854
 63600, 10.832, 20.560, 51.881,  7.477,  0.866
 63660, 11.119, 20.420, 53.488,  7.918,  0.945
 63720, -9999.000, -9999.000, -9999.000, -9999.000, -9999.000
 63780, 11.372, 21.022, 46.169,  7.730,  0.744
 63840, 10.588, 19.715, 48.440,  7.778,  0.603
 63900,  9.625, 15.744, 45.294,  7.304,  0.631
 63960,  9.510, 15.123, 43.317,  7.228,  0.741
 64020,  9.138, 15.709, 44.313,  6.905,  0.758
 64080,  9.251, 16.738, 46.914,  7.045,  0.826
 64140,  9.004, 16.184, 48.295,  6.485,  0.818
 64200,  8.841, 15.235, 46.178,  6.571,  0.616
 64260,  7.614, 14.396, 49.727,  6.000,  0.794
 64320,  6.432, 13.863, 55.718,  5.225,  0.671
 64380,  6.493, 13.520, 53.453,  5.325,  0.490
 64440,  6.599, 13.541, 53.362,  5.574,  0.758
 64500,  6.589, 12.378, 51.924,  5.339,  0.409
 64560,  6.576, 12.611, 51.684,  5.612,  0.608
 64620,  6.617, 13.756, 52.343,  5.858,  0.710
 64680,  6.693, 13.404, 53.811,  5.502,  0.805
 64740,  6.476, 11.928, 51.382,  5.323,  0.361
 64800,  6.933, 13.701, 54.674,  5.621,  0.774
 64860,  7.338, 14.414, 54.916,  6.179,  0.822
 64920,  7.450, 16.084, 58.781,  6.179,  0.773
 64980,  7.088, 17.912, 66.875,  6.169,  0.995
 65040,  6.960, 17.027, 69.237,  5.768,  0.652
 65100,  7.505, 17.968, 72.799,  5.978,  0.931
 65160,  6.774, 16.133, 69.089,  5.624,  0.787
 65220,  6.956, 15.256, 67.363,  5.627,  0.896
 65280,  6.539, 13.700, 66.005,  5.236,  0.800
 65340,  6.429, 14.157, 61.014,  5.239,  0.937
 65400,  6.406, 14.662, 60.093,  5.377,  0.800
 65460,  6.475, 14.777, 58.995,  5.524,  1.030
 65520,  6.132, 13.420, 57.510,  5.204,  0.971
 65580,  5.399,  8.902, 43.513,  4.822,  0.123
 65640,  4.844,  8.990, 40.693,  4.658,  0.334
 65700,  4.806,  8.610, 38.486,  4.469,  0.684
 65760,  4.298,  7.560, 33.991,  4.291,  0.783
 65820,  4.915,  9.142, 34.885,  4.395,  0.722
 65880,  4.679,  7.387, 36.071,  3.965,  0.256
 65940,  3.604,  5.548, 27.593,  3.603,  0.685
 66000,  3.931,  5.827, 24.824,  3.695,  0.459
 66060,  5.489,  9.922, 31.795,  4.430,  0.571
 66120,  6.329, 10.966, 40.937,  4.878,  0.597
 66180,  6.201, 11.619, 43.723,  4.788,  0.677
 66240,  6.525, 12.128, 46.480,  5.122,  0.660
 66300,  6.477, 10.557, 44.512,  5.048,  0.342
 66360,  6.532,  9.715, 43.977,  4.978,  0.627
 66420,  6.390,  9.223, 41.596,  5.043,  0.526
 66480,  6.231,  9.554, 41.592,  4.882,  0.627
 66540,  6.179,  9.449, 40.988,  4.998,  0.449
 66600,  6.313,  9.518, 40.595,  4.724,  0.486
 66660,  6.512,  9.490, 40.667,  4.845,  0.494
 66720,  6.782,  9.899, 44.026,  4.756,  0.469
 66780,  6.726, 10.284, 44.553,  4.969,  0.517
 66840,  6.341, 10.808, 46.660,  4.583,  0.478
 66900,  6.570, 10.192, 45.434,  4.655,  0.411
 66960,  6.419, 10.439, 45.231,  4.701,  0.386
 67020,  6.280, 10.414, 45.989,  4.616,  0.408
 67080,  5.694,  9.258, 45.611,  4.268,  0.395
 67140,  5.720,  9.009, 44.023,  4.092,  0.417
 67200,  5.718,  8.827, 42.831,  4.263,  0.360
 67260,  5.898,  9.038, 44.070,  4.438,  0.313
 67320,  5.844,  8.516, 41.654,  4.030,  0.285
 67380,  5.931, 10.084, 40.681,  5.367,  0.503
 67440,  5.461,  8.310, 31.082,  4.160,  0.412
 67500,  5.544,  7.242, 34.003,  4.122,  0.198
 67560,  5.585,  7.284, 35.726,  4.100,  0.182
 67620,  5.737,  6.797, 39.055,  4.141,  0.305
 67680,  5.790,  7.974, 37.988,  4.339,  0.319
 67740,  5.879,  7.922, 39.386,  4.404,  0.385
 67800,  6.035,  7.764, 37.417,  4.369,  0.361
 67860,  6.077,  7.568, 38.374,  4.655,  0.517
 67920,  6.018,  7.111, 39.396,  4.565,  0.517
 67980,  6.088,  7.745, 38.103,  4.699,  0.394
 68040,  6.230,  7.237, 39.284,  4.451,  0.527
 68100,  5.961,  7.878, 39.359,  4.451,  0.599
 68160,  6.165,  7.958, 38.905,  4.625,  0.405
 68220,  6.204,  7.998, 39.376,  4.297,  0.481
 68280,  5.661,  8.248, 39.348,  4.268,  0.692
 68340,  5.245,  8.179, 34.726,  4.233,  0.630
 68400,  5.177,  7.511, 32.424,  4.089,  0.431
 68460,  5.264,  7.830, 31.678,  4.065,  0.517
 68520,  5.173,  7.894, 33.401,  4.247,  0.490
 68580,  5.073,  6.556, 30.435,  4.041,  0.487
 68640,  4.921,  6.356, 30.788,  4.092,  0.511
 68700,  5.151,  6.912, 30.984,  4.087,  0.611
 68760,  5.034,  7.592, 31.863,  4.103,  0.652
 68820,  4.766,  6.522, 30.368,  4.052,  0.612
 68880,  4.330,  6.026, 28.358,  3.521,  0.560
 68940,  3.715,  4.998, 25.899,  3.328,  0.513
 69000,  3.418,  4.533, 23.593,  3.227,  0.469
 69060,  3.558,  4.243, 22.603,  3.383,  0.553
 69120,  3.701,  4.931, 22.725,  3.502,  0.648
 69180,  3.398,  4.884, 23.474,  3.410,  0.777
 69240,  3.291,  3.248, 21.208,  2.604,  0.226
 69300,  5.001,  5.876, 27.418,  4.228,  0.647
 69360,  4.922,  6.592, 30.223,  4.344,  0.602
 69420,  5.201,  7.937, 33.512,  4.007,  0.734
 69480,  5.481,  7.822, 35.349,  4.178,  0.689
 69540,  5.264,  7.123, 34.402,  4.522,  0.588
 69600,  5.575,  7.303, 34.664,  4.315,  0.672
 69660,  5.584,  7.080, 34.784,  4.399,  0.495
 69720,  5.479,  6.873, 36.587,  4.101,  0.673
 69780,  5.519,  7.109, 34.704,  4.448,  0.475
 69840,  5.488,  7.376, 35.090,  4.210,  0.570
 69900,  5.439,  7.038, 34.875,  4.283,  0.492
 69960,  5.414,  7.071, 32.898,  4.063,  0.457
 70020,  5.394,  7.140, 32.802,  4.208,  0.599
 70080,  5.417,  7.135, 32.299,  4.156,  0.476
 70140,  5.333,  7.037, 30.728,  4.158,  0.457
 70200,  5.295,  6.685, 32.022,  4.103,  0.350
 70260,  5.191,  6.773, 30.470,  3.783,  0.365
 70320,  5.350,  7.062, 33.860,  3.611,  0.531
 70380,  5.391,  6.865, 34.539,  3.847,  0.366
 70440,  5.404,  6.472, 34.176,  3.903,  0.370
 70500,  5.368,  6.340, 36.118,  3.666,  0.293
 70560,  5.375,  5.257, 36.302,  3.301,  0.195
 70620,  5.850,  6.165, 36.464,  3.582,  0.239
 70680,  6.030,  5.807, 34.984,  3.974,  0.163
 70740,  6.054,  5.565, 37.981,  4.022, -0.037
 70800,  6.308,  5.711, 36.591,  3.999, -0.032
 70860,  6.209,  5.703, 37.253,  3.551,  0.003
 70920,  6.670,  6.311, 39.399,  3.791,  0.124
 70980,  7.240,  7.976, 43.694,  4.101,  0.211
 71040,  7.242,  6.822, 43.481,  3.985, -0.106
 71100, -9999.000, -9999.000, -9999.000, -9999.000, -9999.000
 71160,  6.756,  6.697, 37.148,  4.423,  0.170
 71220,  6.899,  6.884, 39.949,  4.364,  0.203
 71280,  7.008,  7.344, 41.907,  4.091,  0.104
 71340,  7.382,  8.183, 44.799,  4.213,  0.149
 71400,  7.734,  7.811, 45.002,  4.068,  0.280
 71460,  7.430,  8.282, 46.782,  4.384,  0.135
 71520,  7.553,  7.557, 46.366,  4.234,  0.126
 71580,  7.433,  8.161, 47.897,  4.361,  0.273
 71640,  7.859,  8.316, 48.132,  4.527,  0.055
 71700,  7.993,  8.437, 48.814,  4.008,  0.184
 71760,  7.891,  8.534, 46.528,  4.210,  0.250
 71820,  8.143,  7.942, 42.822,  4.317,  0.225
 71880,  8.255,  7.621, 41.453,  4.439,  0.257
 71940,  8.346,  7.977, 42.387,  4.602,  0.155
 72000,  8.416,  8.127, 41.669,  4.513,  0.150
 72060,  8.357,  7.630, 41.386,  4.339,  0.086
 72120,  8.243,  7.952, 42.451,  4.317,  0.165
 72180,  8.283,  8.009, 42.387,  4.124,  0.154
 72240,  8.172,  6.994, 38.775,  4.662,  0.146
 72300,  8.244,  7.161, 38.805,  4.626,  0.223
 72360,  8.207,  7.397, 38.792,  4.236,  0.186
 72420,  8.052,  7.429, 38.478,  4.237,  0.252
 72480,  8.101,  7.901, 39.633,  4.339,  0.138
 72540,  8.122,  7.540, 38.167,  4.397,  0.170
 72600,  8.048,  7.403, 36.546,  4.320,  0.055
 72660,  8.108,  7.277, 38.422,  4.385,  0.145
 72720,  8.084,  7.769, 38.210,  4.246,  0.158
 72780,  8.183,  6.895, 38.400,  4.492,  0.029
 72840,  8.113,  6.976, 36.534,  4.563,  0.211
 72900,  8.069,  7.421, 37.263,  4.439,  0.142
 72960,  8.276,  7.552, 29.025,  4.954,  0.245
 73020,  8.221,  6.826, 33.287,  4.694,  0.153
 73080,  8.150,  6.875, 37.496,  4.685,  0.031
 73140,  8.107,  7.333, 35.198,  4.462,  0.111
 73200,  8.032,  6.843, 36.833,  4.607,  0.195
 73260,  7.966,  7.405, 34.427,  4.536,  0.159
 73320,  8.156,  6.930, 35.427,  4.458,  0.204
 73380,  8.148,  7.084, 36.706,  4.518,  0.146
 73440,  7.994,  6.898, 34.984,  4.416,  0.204
 73500,  7.994,  7.133, 33.560,  4.484,  0.298
 73560,  7.809,  6.757, 34.990,  4.451,  0.253
 73620,  7.483,  7.088, 35.743,  4.672,  0.312
 73680,  7.121,  6.471, 35.162,  4.467,  0.299
 73740,  7.013,  6.142, 35.154,  4.485,  0.372
 73800,  7.060,  6.548, 34.494,  4.205,  0.210
 73860,  7.235,  6.343, 32.358,  4.055,  0.333
 73920,  7.194,  6.307, 33.005,  4.174,  0.208
 73980,  7.083,  6.223, 33.223,  4.269,  0.366
 74040,  7.276,  5.874, 31.626,  4.321,  0.230
 74100,  7.377,  5.972, 32.845,  4.146,  0.433
 74160,  7.377,  6.006, 30.888,  4.115,  0.247
 74220,  7.301,  6.288, 32.625,  4.371,  0.358
 74280,  7.073,  6.355, 33.188,  4.461,  0.309
 74340,  7.121,  6.165, 34.101,  4.659,  0.180
 74400,  7.290,  6.413, 31.636,  4.262,  0.300
 74460,  7.224,  6.152, 31.289,  4.172,  0.304
 74520,  7.069,  5.887, 30.617,  4.001,  0.344
 74580,  7.210,  5.744, 29.661,  4.267,  0.328
 74640,  7.148,  5.594, 30.186,  4.165,  0.361
 74700,  7.115,  5.444, 29.633,  4.208,  0.365
 74760,  7.104,  5.212, 30.246,  4.380,  0.168
 74820, -9999.000, -9999.000, -9999.000, -9999.000, -9999.000
 74880,  6.960,  5.196, 22.980,  4.456,  0.132
 74940,  6.972,  5.639, 27.027,  4.524,  0.188
 75000,  7.212,  5.865, 28.284,  4.595,  0.202
 75060,  7.202,  6.205, 28.504,  4.466,  0.130
 75120,  7.328,  6.382, 29.830,  4.922,  0.282
 75180,  7.225,  6.314, 30.133,  4.693,  0.316
 75240,  7.138,  5.432, 29.561,  4.561,  0.380
 75300,  7.125,  5.427, 29.094,  4.422,  0.242
 75360,  6.916,  5.380, 27.851,  4.579,  0.280
 75420,  7.111,  6.197, 28.046,  4.382,  0.402
 75480,  6.878,  6.322, 29.547,  4.513,  0.332
 75540,  6.914,  6.751, 29.758,  4.562,  0.227
 75600,  6.919,  6.775, 29.371,  4.236,  0.246
 75660,  6.906,  6.870, 28.522,  4.547,  0.262
 75720,  6.767,  6.140, 29.500,  4.339,  0.366
 75780,  6.794,  6.263, 30.237,  4.395,  0.275
 75840,  6.690,  5.893, 29.651,  4.475,  0.244
 75900,  6.701,  6.775, 29.331,  4.302,  0.291
 75960,  6.582,  5.411, 28.879,  4.438,  0.288
 76020,  6.598,  5.616, 25.681,  4.164,  0.190
 76080,  6.537,  5.835, 27.749,  4.318,  0.181
 76140,  6.820,  6.175, 28.868,  4.247,  0.127
 76200,  6.875,  6.151, 29.157,  4.302,  0.203
 76260,  6.799,  6.089, 29.801,  4.024,  0.137
 76320,  6.914,  5.585, 30.935,  4.404,  0.173
 76380,  7.058,  5.879, 31.909,  4.153,  0.143
 76440,  7.070,  5.720, 30.988,  4.172,  0.062
 76500,  7.013,  5.180, 30.357,  4.333,  0.074
 76560,  6.948,  5.150, 30.476,  4.406,  0.131
 76620,  6.963,  5.327, 32.123,  4.366,  0.282
 76680,  6.826,  4.428, 24.024,  4.602, -0.070
 76740,  6.724,  4.993, 26.356,  4.451,  0.023
 76800,  6.857,  5.409, 27.078,  4.591,  0.081
 76860,  6.727,  5.184, 26.842,  4.419,  0.146
 76920,  6.777,  4.885, 27.672,  4.414,  0.104
 76980,  6.873,  4.999, 28.620,  4.579,  0.117
 77040,  6.925,  5.585, 29.022,  4.403,  0.174
 77100,  6.868,  5.801, 30.849,  4.653,  0.177
 77160,  7.016,  5.793, 30.962,  4.506,  0.174
 77220,  6.902,  5.531, 29.622,  4.602,  0.189
 77280,  6.967,  5.885, 31.761,  4.902,  0.145
 77340,  6.857,  6.243, 34.011,  4.768,  0.129
 77400,  6.817,  6.395, 36.936,  4.683,  0.161
 77460,  6.683,  5.658, 37.342,  4.427,  0.087
 77520,  6.749,  5.307, 37.557,  4.407,  0.057
 77580,  6.649,  5.221, 37.263,  4.256,  0.174
 77640,  6.458,  5.553, 37.822,  4.407,  0.152
 77700,  6.490,  5.043, 37.506,  4.470,  0.256
 77760,  6.578,  5.382, 37.013,  4.166,  0.232
 77820,  6.422,  5.572, 36.188,  4.020,  0.103
 77880,  6.465,  5.246, 37.855,  4.025,  0.252
 77940,  6.337,  4.947, 37.032,  4.050,  0.219
 78000,  6.381,  4.563, 37.070,  4.112,  0.247
 78060,  6.256,  4.588, 36.311,  4.211,  0.235
 78120,  6.150,  4.361, 37.040,  4.132,  0.217
 78180,  6.176,  4.232, 35.468,  3.878,  0.143
 78240,  6.187,  4.092, 36.029,  4.083,  0.261
 78300,  6.274,  3.902, 36.196,  3.991,  0.219
 78360,  6.098,  4.777, 36.937,  4.134,  0.206
 78420,  5.665,  4.249, 38.800,  3.735,  0.356
 78480, -9999.000, -9999.000, -9999.000, -9999.000, -9999.000
 78540,  5.541,  4.315, 31.320,  4.105,  0.299
 78600,  5.445,  4.490, 34.815,  3.632,  0.296
 78660,  5.330,  4.467, 37.163,  3.696,  0.176
 78720,  5.337,  5.268, 39.701,  3.699,  0.128
 78780,  5.185,  4.901, 38.827,  3.683,  0.334
 78840,  5.140,  4.878, 42.319,  3.359,  0.201
 78900,  5.339,  5.121, 45.725,  3.478,  0.217
 78960,  5.255,  4.845, 49.344,  3.232,  0.230
 79020,  5.347,  5.362, 50.588,  3.132,  0.264
 79080,  5.620,  5.837, 51.497,  3.282,  0.251
 79140,  5.529,  5.916, 52.505,  3.242,  0.204
 79200,  5.570,  5.363, 51.684,  3.328,  0.128
 79260,  5.670,  5.996, 50.857,  3.186,  0.300
 79320,  5.525,  5.780, 46.528,  3.377,  0.124
 79380,  5.543,  6.034, 46.202,  3.168,  0.255
 79440,  5.431,  5.078, 43.195,  3.006,  0.113
 79500,  5.476,  5.036, 43.589,  3.134,  0.167
 79560,  5.444,  5.641, 42.266,  3.136,  0.151
 79620,  5.512,  5.630, 45.118,  3.271,  0.212
 79680,  5.446,  5.703, 42.504,  3.434,  0.145
 79740,  5.196,  5.561, 44.103,  3.265,  0.220
 79800,  4.941,  5.269, 44.193,  3.005,  0.161
 79860,  4.624,  4.994, 41.793,  3.015,  0.051
 79920,  4.419,  4.497, 41.311,  2.763,  0.052
 79980,  4.472,  4.555, 42.093,  3.001,  0.162
 80040,  4.348,  4.471, 38.533,  2.791,  0.201
 80100,  4.274,  5.109, 38.106,  2.681,  0.159
 80160,  4.448,  4.685, 39.164,  3.077,  0.125
 80220,  4.357,  4.389, 38.985,  2.916,  0.134
 80280,  4.196,  4.747, 36.754,  2.982,  0.211
 80340, -9999.000, -9999.000, -9999.000, -9999.000, -9999.000
 80400,  4.140,  5.405, 32.978,  3.369,  0.149
 80460,  3.755,  5.038, 31.454,  2.990,  0.107
 80520,  3.631,  4.516, 31.717,  2.640,  0.138
 80580,  3.472,  3.946, 30.260,  2.605,  0.124
 80640,  3.483,  4.118, 28.977,  2.776,  0.023
 80700,  3.223,  4.087, 27.914,  2.494,  0.112
 80760,  3.159,  3.805, 27.276,  2.515,  0.185
 80820,  3.027,  3.755, 28.148,  2.335,  0.099
 80880,  2.852,  3.883, 27.125,  2.537,  0.077
 80940,  2.842,  4.139, 26.488,  2.609,  0.164
 81000,  2.998,  4.465, 27.577,  2.674,  0.203
 81060,  3.101,  4.695, 31.237,  2.634,  0.116
 81120,  3.145,  4.469, 32.822,  2.724,  0.088
 81180,  3.085,  4.756, 34.412,  2.714,  0.154
 81240,  3.134,  4.859, 34.151,  2.546,  0.211
 81300,  3.205,  4.660, 33.932,  2.586,  0.222
 81360,  3.311,  4.774, 33.696,  2.643,  0.196
 81420,  3.409,  4.424, 33.385,  2.711,  0.209
 81480,  3.566,  4.475, 33.868,  2.666,  0.241
 81540,  3.895,  4.626, 35.784,  3.010,  0.237
 81600,  3.751,  4.854, 34.059,  2.605,  0.248
 81660,  3.733,  4.567, 35.856,  2.903,  0.307
 81720,  3.649,  4.882, 33.351,  2.734,  0.295
 81780,  3.666,  4.726, 33.656,  3.157,  0.189
 81840,  3.700,  4.445, 35.404,  3.049,  0.216
 81900,  3.589,  3.625, 31.844,  2.817,  0.050
 81960,  3.693,  4.334, 33.851,  3.123,  0.266
 82020,  3.708,  4.877, 35.039,  3.202,  0.216
 82080,  3.653,  4.753, 34.111,  3.095,  0.256
 82140,  3.680,  5.225, 33.853,  3.313,  0.276
 82200, -9999.000, -9999.000, -9999.000, -9999.000, -9999.000
 82260,  3.081,  4.694, 25.694,  3.085,  0.332
 82320,  3.002,  4.944, 27.927,  3.099,  0.162
 82380,  3.073,  5.071, 28.406,  3.193,  0.224
 82440,  3.203,  4.334, 29.676,  2.936,  0.081
 82500,  3.156,  4.690, 29.511,  2.962,  0.064
 82560,  3.140,  4.611, 30.969,  3.094,  0.100
 82620,  3.072,  4.278, 30.242,  2.902,  0.104
 82680,  3.118,  4.856, 30.901,  2.979,  0.132
 82740,  3.048,  5.940, 31.960,  3.049,  0.224
 82800,  3.047,  5.312, 32.357,  2.792,  0.296
 82860,  3.050,  5.645, 34.457,  2.748,  0.153
 82920,  3.132,  5.660, 34.694,  2.875,  0.270
 82980,  3.025,  5.755, 34.526,  2.905,  0.164
 83040,  2.904,  5.286, 31.908,  2.829,  0.207
 83100,  2.842,  4.679, 28.533,  2.843,  0.298
 83160,  2.662,  4.399, 27.313,  2.563,  0.177
 83220,  2.607,  3.951, 26.341,  2.541,  0.071
 83280,  2.652,  3.612, 24.909,  2.422,  0.105
 83340,  2.594,  3.465, 25.280,  2.347,  0.078
 83400,  2.710,  4.848, 26.484,  2.505,  0.269
 83460,  2.747,  4.637, 28.118,  2.501,  0.223
 83520,  2.633,  4.400, 26.833,  2.396,  0.259
 83580,  2.628,  4.406, 26.038,  2.462,  0.277
 83640,  2.546,  4.826, 27.465,  2.368,  0.245
 83700,  2.328,  4.707, 24.677,  2.517,  0.212
 83760,  2.349,  3.834, 23.714,  2.082,  0.121
 83820,  2.359,  3.602, 23.131,  2.086,  0.017
 83880,  2.328,  3.481, 20.695,  2.177,  0.073
 83940,  2.305,  3.546, 21.395,  2.184,  0.039
 84000,  2.252,  3.387, 21.397,  2.366,  0.138
 84060,  2.237,  3.483, 20.701,  2.663, -0.012
 84120,  2.087,  3.790, 20.727,  2.360,  0.163
 84180,  2.105,  3.550, 20.582,  2.345,  0.149
 84240,  1.931,  2.808, 19.040,  2.050, -0.002
 84300,  2.024,  3.228, 20.099,  1.936,  0.084
 84360,  1.918,  2.965, 19.446,  2.129, -0.021
 84420,  1.683,  2.550, 17.108,  1.844,  0.061
 84480,  1.821,  2.619, 18.100,  1.940, -0.013
 84540,  1.930,  3.252, 18.493,  1.977,  0.112
 84600,  1.990,  3.600, 19.096,  1.945,  0.052
 84660,  1.990,  2.950, 19.228,  2.093, -0.070
 84720,  2.076,  3.361, 20.687,  2.001,  0.016
 84780,  2.116,  3.388, 21.176,  1.885, -0.013
 84840,  2.349,  4.388, 23.394,  2.194,  0.032
 84900,  2.406,  3.926, 24.082,  2.392,  0.068
 84960,  2.435,  3.626, 23.013,  2.444, -0.012
 85020,  2.492,  3.959, 24.374,  2.405, -0.023
 85080,  2.488,  4.380, 23.943,  2.194,  0.007
 85140,  2.557,  4.453, 24.892,  2.401,  0.075
 85200,  2.345,  4.701, 24.952,  2.556,  0.039
 85260,  2.290,  4.891, 24.126,  2.481,  0.041
 85320,  2.413,  5.051, 25.778,  2.319,  0.099
 85380,  2.322,  5.536, 24.156,  2.317,  0.027
 85440,  2.221,  4.922, 25.020,  2.421,  0.056
 85500,  2.245,  5.222, 25.121,  2.457,  0.044
 85560,  2.173,  4.834, 23.466,  2.218,  0.107
 85620,  2.216,  4.987, 24.659,  2.239,  0.059
 85680,  2.129,  4.989, 23.992,  2.154,  0.156
 85740,  2.047,  4.708, 22.856,  2.132,  0.014
 85800,  2.067,  5.041, 21.362,  2.134,  0.054
 85860, -9999.000, -9999.000, -9999.000, -9999.000, -9999.000
 85920,  1.795,  5.812, 20.557,  2.123,  0.219
 85980,  1.906,  4.838, 21.438,  2.402,  0.136
 86040,  1.898,  3.652, 20.101,  2.212,  0.070
 86100,  1.738,  3.562, 20.710,  1.951,  0.061
 86160,  1.759,  3.228, 18.975,  2.140,  0.065
 86220,  1.791,  3.273, 20.349,  2.115,  0.043
 86280,  1.664,  3.110, 20.682,  1.953,  0.126
 86340,  1.682,  2.928, 19.595,  2.051,  0.114
