33, 1001
Michael A Robinson, Chris Jernigan, Subi Thakali
NOAA ESRL Chemical Sciences Laboratory and CIRES, U. of Colorado
NOAA Iodide CIMS Instrument
USOS
1, 1
2024, 08, 13, 2024, 08, 15
1
starttime_UTC, seconds_past_midnight, seconds_of_day_since_00:00:00_UTC
1
1
-9999
N2O5_NOAACIMS, pptv, Gas_N2O5_InSitu_S_AVMR, 
0
18
PI_CONTACT_INFO: 325 Broadway, R/CSD 7, Boulder, Colorado 80305; michael.a.robinson@noaa.gov; chris.jernigan@noaa.gov;
PLATFORM: NOAA CSL Mobile Lab
LOCATION: SLC, Utah
ASSOCIATED_DATA: 1Hz data also available on request.
INSTRUMENT_INFO: NOAA I- ToF CIMS
DATA_INFO: All data in parts per trillion by volume (pptv). 1 Hz data is available upon request.
UNCERTAINTY: TBD
ULOD_FLAG: -7777
ULOD_VALUE: N/A
LLOD_FLAG: -8888
LLOD_VALUE: N/A
DM_CONTACT_INFO: Nathan Howard; nathan.h.howard@noaa.gov
PROJECT_INFO: USOS, summer 2024. https://csl.noaa.gov/groups/csl7/measurements/2024usos/
STIPULATIONS_ON_USE: Users are strongly encouraged to contact the PI for proper data usage.
OTHER_COMMENTS: 
REVISION: RA
RA: Preliminary Data; For in-field use only
starttime_UTC, N2O5_NOAACIMS
     0, -9999.000
    60, -9999.000
   120, -9999.000
   180, -9999.000
   240, -9999.000
   300, -9999.000
   360, -9999.000
   420, -9999.000
   480, -9999.000
   540, -9999.000
   600, -9999.000
   660, -9999.000
   720, -9999.000
   780, -9999.000
   840, -9999.000
   900, -9999.000
   960, -9999.000
  1020, -9999.000
  1080, -9999.000
  1140, -9999.000
  1200, -9999.000
  1260, -9999.000
  1320, -9999.000
  1380, -9999.000
  1440, -9999.000
  1500, -9999.000
  1560, -9999.000
  1620, -9999.000
  1680, -9999.000
  1740, -9999.000
  1800, -9999.000
  1860, -9999.000
  1920, -9999.000
  1980, -9999.000
  2040, -9999.000
  2100, -9999.000
  2160, -9999.000
  2220, -9999.000
  2280, -9999.000
  2340, -9999.000
  2400, -9999.000
  2460, -9999.000
  2520, -9999.000
  2580, -9999.000
  2640, -9999.000
  2700, -9999.000
  2760, -9999.000
  2820, -9999.000
  2880, -9999.000
  2940, -9999.000
  3000, -9999.000
  3060, -9999.000
  3120, -9999.000
  3180, -9999.000
  3240, -9999.000
  3300, -9999.000
  3360, -9999.000
  3420, -9999.000
  3480, -9999.000
  3540, -9999.000
  3600, -9999.000
  3660, -9999.000
  3720, -9999.000
  3780, -9999.000
  3840, -9999.000
  3900, -9999.000
  3960, -9999.000
  4020, -9999.000
  4080, -9999.000
  4140, -9999.000
  4200, -9999.000
  4260, -9999.000
  4320, -9999.000
  4380, -9999.000
  4440, -9999.000
  4500, -9999.000
  4560, -9999.000
  4620, -9999.000
  4680, -9999.000
  4740, -9999.000
  4800, -9999.000
  4860, -9999.000
  4920, -9999.000
  4980, -9999.000
  5040, -9999.000
  5100, -9999.000
  5160, -9999.000
  5220, -9999.000
  5280, -9999.000
  5340, -9999.000
  5400,  0.294
  5460,  0.425
  5520,  0.433
  5580,  0.432
  5640,  0.495
  5700,  0.511
  5760,  0.507
  5820,  0.453
  5880,  0.338
  5940,  0.546
  6000,  0.428
  6060,  0.675
  6120,  0.519
  6180,  0.460
  6240,  0.615
  6300,  0.644
  6360,  0.387
  6420,  0.612
  6480,  0.276
  6540,  1.030
  6600,  0.944
  6660,  0.848
  6720,  0.960
  6780,  0.512
  6840,  0.915
  6900,  0.911
  6960,  0.997
  7020,  1.008
  7080,  1.187
  7140,  1.014
  7200,  0.708
  7260,  0.627
  7320,  0.651
  7380,  0.475
  7440,  0.651
  7500,  0.889
  7560,  0.821
  7620,  0.821
  7680,  1.220
  7740,  0.740
  7800,  0.440
  7860,  0.295
  7920,  0.276
  7980,  0.378
  8040,  0.401
  8100,  0.373
  8160,  0.464
  8220,  0.580
  8280,  0.401
  8340,  0.722
  8400,  0.380
  8460,  0.307
  8520,  0.398
  8580,  0.424
  8640,  0.433
  8700,  0.359
  8760,  0.356
  8820,  0.518
  8880,  0.380
  8940,  0.379
  9000,  0.341
  9060,  0.367
  9120,  0.404
  9180,  0.318
  9240,  0.487
  9300,  0.501
  9360,  0.386
  9420,  0.500
  9480,  0.345
  9540,  0.346
  9600,  0.338
  9660,  0.402
  9720,  0.303
  9780,  0.347
  9840,  0.337
  9900,  0.346
  9960,  0.283
 10020,  0.235
 10080,  0.339
 10140,  0.252
 10200, -9999.000
 10260,  0.285
 10320,  0.309
 10380,  0.440
 10440,  0.344
 10500,  0.662
 10560,  0.657
 10620,  0.629
 10680,  0.948
 10740,  2.227
 10800,  1.120
 10860,  1.016
 10920,  1.147
 10980,  4.801
 11040,  3.905
 11100,  5.405
 11160,  6.442
 11220,  6.568
 11280,  4.719
 11340,  7.403
 11400,  3.937
 11460,  1.328
 11520,  1.297
 11580,  1.935
 11640,  1.919
 11700,  1.159
 11760,  2.538
 11820,  2.424
 11880,  1.753
 11940,  1.657
 12000,  1.473
 12060,  1.326
 12120,  1.530
 12180,  2.085
 12240,  3.309
 12300,  2.498
 12360,  2.643
 12420,  3.546
 12480,  2.182
 12540,  1.179
 12600,  1.304
 12660,  2.625
 12720,  2.031
 12780,  1.925
 12840,  5.478
 12900,  7.834
 12960,  6.865
 13020,  2.447
 13080,  1.030
 13140,  1.386
 13200,  2.152
 13260,  3.145
 13320,  2.106
 13380,  1.691
 13440,  1.640
 13500,  0.778
 13560,  2.697
 13620,  1.856
 13680,  1.830
 13740,  1.352
 13800,  1.568
 13860,  1.216
 13920, -9999.000
 13980,  0.980
 14040,  0.669
 14100,  1.218
 14160,  1.476
 14220,  1.750
 14280,  1.493
 14340,  1.713
 14400,  1.154
 14460,  1.763
 14520,  1.875
 14580,  1.892
 14640,  2.659
 14700,  3.532
 14760,  1.832
 14820,  1.743
 14880,  1.905
 14940,  2.508
 15000,  1.681
 15060,  1.517
 15120,  2.128
 15180,  1.933
 15240,  1.406
 15300,  2.228
 15360,  1.858
 15420,  1.436
 15480,  2.746
 15540,  2.918
 15600,  3.386
 15660,  3.935
 15720,  5.702
 15780,  4.293
 15840,  3.510
 15900,  4.146
 15960,  4.341
 16020,  2.340
 16080,  2.218
 16140,  2.381
 16200,  2.595
 16260,  3.572
 16320,  3.973
 16380,  3.198
 16440,  2.091
 16500,  1.646
 16560,  1.960
 16620,  2.067
 16680,  2.109
 16740,  2.186
 16800,  1.863
 16860,  1.581
 16920,  1.730
 16980,  1.883
 17040,  1.499
 17100,  1.350
 17160,  1.447
 17220,  1.784
 17280,  1.052
 17340,  0.732
 17400,  0.911
 17460,  1.144
 17520,  0.853
 17580, -9999.000
 17640,  1.142
 17700,  1.076
 17760,  0.670
 17820,  0.859
 17880,  1.251
 17940,  1.085
 18000,  1.116
 18060,  1.157
 18120,  1.119
 18180,  1.610
 18240,  1.394
 18300,  1.669
 18360,  1.404
 18420,  1.538
 18480,  1.864
 18540,  1.721
 18600,  1.544
 18660,  1.188
 18720,  1.245
 18780,  1.326
 18840,  1.175
 18900,  0.845
 18960,  1.370
 19020,  1.763
 19080,  1.461
 19140,  1.364
 19200,  1.850
 19260,  1.261
 19320,  1.495
 19380,  1.580
 19440, -9999.000
 19500,  1.508
 19560,  1.342
 19620,  1.425
 19680,  1.507
 19740,  2.570
 19800,  4.109
 19860,  4.971
 19920,  4.209
 19980,  3.317
 20040,  4.239
 20100,  3.724
 20160,  3.110
 20220,  4.176
 20280,  3.994
 20340,  4.453
 20400,  4.542
 20460,  3.232
 20520,  3.949
 20580,  3.443
 20640,  4.021
 20700,  2.745
 20760,  3.189
 20820,  2.835
 20880,  2.579
 20940,  2.074
 21000,  1.990
 21060,  3.422
 21120,  2.959
 21180,  2.500
 21240,  2.357
 21300, -9999.000
 21360,  3.402
 21420,  3.527
 21480,  3.126
 21540,  2.127
 21600,  2.343
 21660,  3.085
 21720,  3.942
 21780,  4.514
 21840,  3.639
 21900,  2.283
 21960,  2.481
 22020,  2.725
 22080,  2.302
 22140,  1.750
 22200,  1.553
 22260,  1.466
 22320,  1.628
 22380,  1.318
 22440,  1.192
 22500,  1.187
 22560,  1.263
 22620,  1.254
 22680,  1.325
 22740,  1.134
 22800,  1.226
 22860,  1.180
 22920,  1.425
 22980,  1.288
 23040,  1.506
 23100,  1.014
 23160,  1.523
 23220,  1.436
 23280,  1.726
 23340,  1.792
 23400,  1.563
 23460,  1.868
 23520,  1.611
 23580,  2.527
 23640,  2.231
 23700,  2.720
 23760,  2.002
 23820,  1.474
 23880,  0.939
 23940,  2.661
 24000,  2.204
 24060,  3.272
 24120,  2.612
 24180,  1.968
 24240,  2.253
 24300,  2.682
 24360,  2.242
 24420,  3.610
 24480,  3.235
 24540,  2.866
 24600,  4.257
 24660,  4.318
 24720,  3.369
 24780,  3.215
 24840,  3.497
 24900,  6.541
 24960, -9999.000
 25020,  6.455
 25080,  4.760
 25140,  4.128
 25200,  7.617
 25260,  8.443
 25320,  8.413
 25380,  7.481
 25440,  6.292
 25500,  4.052
 25560,  3.748
 25620,  5.654
 25680,  6.122
 25740,  5.073
 25800,  5.688
 25860,  7.028
 25920,  4.966
 25980,  5.092
 26040,  4.876
 26100,  4.219
 26160,  5.775
 26220,  3.955
 26280,  5.177
 26340,  4.683
 26400,  4.387
 26460,  4.160
 26520,  3.891
 26580,  3.625
 26640,  2.968
 26700,  2.693
 26760,  2.193
 26820,  2.930
 26880,  1.907
 26940,  1.584
 27000,  2.081
 27060,  2.803
 27120,  2.659
 27180,  2.311
 27240,  3.390
 27300,  3.293
 27360,  4.446
 27420,  4.741
 27480,  2.954
 27540,  2.510
 27600,  1.990
 27660,  2.163
 27720,  2.259
 27780,  1.587
 27840,  2.641
 27900,  2.398
 27960,  2.237
 28020,  3.067
 28080,  4.582
 28140,  3.291
 28200,  2.591
 28260,  2.742
 28320,  3.395
 28380,  3.013
 28440,  3.030
 28500,  2.474
 28560,  2.405
 28620,  2.933
 28680, -9999.000
 28740,  3.596
 28800,  3.618
 28860,  3.650
 28920,  2.725
 28980,  2.747
 29040,  2.487
 29100,  2.219
 29160,  2.487
 29220,  2.627
 29280,  2.619
 29340,  2.309
 29400,  2.213
 29460,  2.639
 29520,  2.550
 29580,  2.935
 29640,  2.733
 29700,  2.734
 29760,  2.498
 29820,  2.874
 29880,  2.506
 29940,  2.848
 30000,  2.690
 30060,  2.378
 30120,  2.423
 30180,  2.180
 30240,  2.087
 30300,  1.945
 30360,  1.857
 30420,  2.164
 30480,  2.151
 30540,  3.131
 30600,  2.391
 30660,  3.468
 30720,  2.710
 30780,  1.800
 30840,  1.725
 30900,  1.789
 30960,  1.921
 31020,  1.764
 31080,  1.608
 31140,  1.589
 31200,  1.343
 31260,  1.358
 31320,  1.312
 31380,  1.124
 31440,  1.016
 31500,  1.214
 31560,  1.056
 31620,  1.002
 31680,  1.006
 31740,  0.638
 31800,  0.730
 31860,  0.839
 31920,  0.907
 31980,  0.889
 32040,  0.796
 32100,  0.852
 32160,  0.793
 32220,  0.890
 32280,  1.006
 32340,  1.349
 32400,  0.826
 32460,  0.796
 32520,  0.892
 32580,  0.819
 32640,  0.922
 32700,  0.658
 32760,  0.793
 32820,  0.835
 32880,  1.039
 32940,  0.787
 33000,  1.021
 33060,  1.255
 33120,  1.542
 33180,  1.410
 33240,  1.417
 33300,  1.195
 33360,  1.107
 33420,  1.148
 33480,  1.009
 33540,  1.324
 33600,  1.646
 33660,  1.602
 33720,  1.983
 33780,  1.980
 33840,  1.936
 33900,  1.705
 33960,  1.505
 34020,  1.566
 34080,  1.533
 34140,  1.658
 34200,  1.486
 34260,  1.423
 34320,  0.990
 34380,  0.966
 34440,  1.203
 34500,  1.006
 34560,  0.950
 34620,  1.195
 34680,  1.065
 34740,  0.948
 34800,  1.016
 34860,  1.020
 34920,  1.202
 34980,  1.260
 35040,  1.242
 35100,  1.422
 35160,  1.472
 35220,  2.103
 35280,  2.156
 35340,  2.114
 35400,  1.906
 35460,  1.982
 35520,  1.964
 35580,  1.717
 35640,  2.697
 35700,  1.912
 35760,  1.965
 35820,  1.982
 35880,  2.369
 35940,  2.670
 36000,  2.756
 36060, -9999.000
 36120,  2.484
 36180,  2.129
 36240,  2.593
 36300,  2.484
 36360,  2.548
 36420,  1.858
 36480,  1.889
 36540,  2.327
 36600,  2.329
 36660,  1.793
 36720,  2.112
 36780,  2.165
 36840,  2.843
 36900,  2.699
 36960,  2.022
 37020,  2.630
 37080,  2.651
 37140,  2.529
 37200,  2.561
 37260,  2.493
 37320,  2.081
 37380,  2.422
 37440,  2.597
 37500,  2.474
 37560,  2.143
 37620,  2.176
 37680,  2.429
 37740,  2.058
 37800,  2.120
 37860,  2.247
 37920, -9999.000
 37980,  1.870
 38040,  2.030
 38100,  2.382
 38160,  2.263
 38220,  2.047
 38280,  1.569
 38340,  3.025
 38400,  3.591
 38460,  3.893
 38520,  4.238
 38580,  3.608
 38640,  3.552
 38700,  3.518
 38760,  3.001
 38820,  2.290
 38880,  2.092
 38940,  2.725
 39000,  2.196
 39060,  2.162
 39120,  2.624
 39180,  2.823
 39240,  2.375
 39300,  2.600
 39360,  2.940
 39420,  2.847
 39480,  2.877
 39540,  3.136
 39600,  2.435
 39660,  2.078
 39720,  2.058
 39780, -9999.000
 39840,  2.669
 39900,  3.319
 39960,  2.662
 40020,  2.586
 40080,  2.421
 40140,  2.786
 40200,  2.630
 40260,  2.256
 40320,  2.579
 40380,  2.542
 40440,  1.964
 40500,  2.117
 40560,  2.404
 40620,  2.776
 40680,  2.615
 40740,  2.456
 40800,  2.060
 40860,  1.883
 40920,  1.878
 40980,  1.850
 41040,  2.183
 41100,  2.446
 41160,  2.673
 41220,  2.365
 41280,  1.044
 41340,  1.537
 41400,  1.976
 41460,  1.122
 41520,  1.561
 41580,  1.027
 41640,  2.121
 41700,  1.520
 41760,  1.213
 41820,  1.359
 41880,  2.030
 41940,  2.410
 42000,  1.847
 42060,  2.595
 42120,  1.991
 42180,  1.813
 42240,  1.577
 42300,  1.628
 42360,  2.084
 42420,  2.055
 42480,  2.386
 42540,  3.652
 42600,  2.991
 42660,  3.365
 42720,  3.631
 42780,  2.887
 42840,  2.262
 42900,  2.247
 42960,  3.270
 43020,  3.629
 43080,  2.313
 43140,  2.922
 43200,  2.847
 43260,  3.073
 43320,  3.889
 43380,  4.064
 43440, -9999.000
 43500,  3.816
 43560,  4.353
 43620,  3.944
 43680,  3.631
 43740,  3.105
 43800,  4.301
 43860,  4.092
 43920,  5.246
 43980,  4.146
 44040,  5.036
 44100,  5.279
 44160,  5.292
 44220,  5.807
 44280,  3.778
 44340,  4.780
 44400,  4.180
 44460,  3.766
 44520,  3.666
 44580,  3.742
 44640,  3.854
 44700,  4.266
 44760,  5.377
 44820,  4.459
 44880,  4.095
 44940,  3.574
 45000,  3.963
 45060,  3.426
 45120,  2.839
 45180,  2.945
 45240,  3.091
 45300,  2.659
 45360,  2.738
 45420,  3.817
 45480,  4.000
 45540,  5.327
 45600,  3.646
 45660,  2.730
 45720,  3.487
 45780,  3.095
 45840,  3.492
 45900,  2.855
 45960,  3.693
 46020,  4.715
 46080,  4.209
 46140,  3.026
 46200,  3.406
 46260,  2.722
 46320,  2.899
 46380,  2.689
 46440,  2.457
 46500,  2.500
 46560,  3.328
 46620,  3.567
 46680,  3.261
 46740,  2.867
 46800, -9999.000
 46860, -9999.000
 46920, -9999.000
 46980, -9999.000
 47040, -9999.000
 47100, -9999.000
 47160, -9999.000
 47220, -9999.000
 47280, -9999.000
 47340, -9999.000
 47400, -9999.000
 47460, -9999.000
 47520, -9999.000
 47580, -9999.000
 47640, -9999.000
 47700, -9999.000
 47760, -9999.000
 47820, -9999.000
 47880, -9999.000
 47940, -9999.000
 48000, -9999.000
 48060, -9999.000
 48120, -9999.000
 48180, -9999.000
 48240, -9999.000
 48300, -9999.000
 48360, -9999.000
 48420, -9999.000
 48480, -9999.000
 48540, -9999.000
 48600, -9999.000
 48660, -9999.000
 48720, -9999.000
 48780, -9999.000
 48840, -9999.000
 48900, -9999.000
 48960, -9999.000
 49020, -9999.000
 49080, -9999.000
 49140, -9999.000
 49200, -9999.000
 49260, -9999.000
 49320, -9999.000
 49380, -9999.000
 49440, -9999.000
 49500, -9999.000
 49560, -9999.000
 49620, -9999.000
 49680, -9999.000
 49740, -9999.000
 49800, -9999.000
 49860, -9999.000
 49920, -9999.000
 49980, -9999.000
 50040, -9999.000
 50100, -9999.000
 50160, -9999.000
 50220, -9999.000
 50280, -9999.000
 50340, -9999.000
 50400, -9999.000
 50460, -9999.000
 50520, -9999.000
 50580, -9999.000
 50640, -9999.000
 50700, -9999.000
 50760, -9999.000
 50820, -9999.000
 50880, -9999.000
 50940, -9999.000
 51000, -9999.000
 51060, -9999.000
 51120, -9999.000
 51180, -9999.000
 51240, -9999.000
 51300, -9999.000
 51360, -9999.000
 51420, -9999.000
 51480, -9999.000
 51540, -9999.000
 51600, -9999.000
 51660, -9999.000
 51720, -9999.000
 51780, -9999.000
 51840, -9999.000
 51900, -9999.000
 51960, -9999.000
 52020, -9999.000
 52080, -9999.000
 52140, -9999.000
 52200, -9999.000
 52260, -9999.000
 52320, -9999.000
 52380, -9999.000
 52440, -9999.000
 52500, -9999.000
 52560, -9999.000
 52620, -9999.000
 52680, -9999.000
 52740, -9999.000
 52800, -9999.000
 52860, -9999.000
 52920, -9999.000
 52980, -9999.000
 53040, -9999.000
 53100, -9999.000
 53160, -9999.000
 53220, -9999.000
 53280, -9999.000
 53340, -9999.000
 53400, -9999.000
 53460, -9999.000
 53520, -9999.000
 53580, -9999.000
 53640, -9999.000
 53700, -9999.000
 53760, -9999.000
 53820, -9999.000
 53880, -9999.000
 53940, -9999.000
 54000, -9999.000
 54060, -9999.000
 54120, -9999.000
 54180, -9999.000
 54240, -9999.000
 54300, -9999.000
 54360, -9999.000
 54420, -9999.000
 54480, -9999.000
 54540, -9999.000
 54600, -9999.000
 54660, -9999.000
 54720, -9999.000
 54780, -9999.000
 54840, -9999.000
 54900, -9999.000
 54960, -9999.000
 55020, -9999.000
 55080, -9999.000
 55140, -9999.000
 55200, -9999.000
 55260, -9999.000
 55320, -9999.000
 55380, -9999.000
 55440, -9999.000
 55500, -9999.000
 55560, -9999.000
 55620, -9999.000
 55680, -9999.000
 55740, -9999.000
 55800, -9999.000
 55860, -9999.000
 55920, -9999.000
 55980, -9999.000
 56040, -9999.000
 56100, -9999.000
 56160, -9999.000
 56220, -9999.000
 56280, -9999.000
 56340, -9999.000
 56400, -9999.000
 56460, -9999.000
 56520, -9999.000
 56580, -9999.000
 56640, -9999.000
 56700, -9999.000
 56760, -9999.000
 56820, -9999.000
 56880, -9999.000
 56940, -9999.000
 57000, -9999.000
 57060, -9999.000
 57120, -9999.000
 57180, -9999.000
 57240, -9999.000
 57300, -9999.000
 57360, -9999.000
 57420, -9999.000
 57480, -9999.000
 57540, -9999.000
 57600, -9999.000
 57660, -9999.000
 57720, -9999.000
 57780, -9999.000
 57840, -9999.000
 57900, -9999.000
 57960, -9999.000
 58020, -9999.000
 58080, -9999.000
 58140, -9999.000
 58200, -9999.000
 58260, -9999.000
 58320, -9999.000
 58380, -9999.000
 58440, -9999.000
 58500, -9999.000
 58560, -9999.000
 58620, -9999.000
 58680, -9999.000
 58740, -9999.000
 58800, -9999.000
 58860, -9999.000
 58920, -9999.000
 58980, -9999.000
 59040, -9999.000
 59100, -9999.000
 59160, -9999.000
 59220, -9999.000
 59280, -9999.000
 59340, -9999.000
 59400, -9999.000
 59460, -9999.000
 59520, -9999.000
 59580, -9999.000
 59640, -9999.000
 59700, -9999.000
 59760, -9999.000
 59820, -9999.000
 59880, -9999.000
 59940, -9999.000
 60000, -9999.000
 60060, -9999.000
 60120, -9999.000
 60180, -9999.000
 60240, -9999.000
 60300, -9999.000
 60360, -9999.000
 60420, -9999.000
 60480, -9999.000
 60540, -9999.000
 60600, -9999.000
 60660, -9999.000
 60720, -9999.000
 60780, -9999.000
 60840, -9999.000
 60900, -9999.000
 60960, -9999.000
 61020, -9999.000
 61080, -9999.000
 61140, -9999.000
 61200, -9999.000
 61260, -9999.000
 61320, -9999.000
 61380, -9999.000
 61440, -9999.000
 61500, -9999.000
 61560, -9999.000
 61620, -9999.000
 61680, -9999.000
 61740, -9999.000
 61800, -9999.000
 61860, -9999.000
 61920, -9999.000
 61980, -9999.000
 62040, -9999.000
 62100, -9999.000
 62160, -9999.000
 62220, -9999.000
 62280, -9999.000
 62340, -9999.000
 62400, -9999.000
 62460, -9999.000
 62520, -9999.000
 62580, -9999.000
 62640, -9999.000
 62700, -9999.000
 62760, -9999.000
 62820, -9999.000
 62880, -9999.000
 62940, -9999.000
 63000, -9999.000
 63060, -9999.000
 63120, -9999.000
 63180, -9999.000
 63240, -9999.000
 63300, -9999.000
 63360, -9999.000
 63420, -9999.000
 63480, -9999.000
 63540, -9999.000
 63600, -9999.000
 63660, -9999.000
 63720, -9999.000
 63780, -9999.000
 63840, -9999.000
 63900, -9999.000
 63960, -9999.000
 64020, -9999.000
 64080, -9999.000
 64140, -9999.000
 64200, -9999.000
 64260, -9999.000
 64320, -9999.000
 64380, -9999.000
 64440, -9999.000
 64500, -9999.000
 64560, -9999.000
 64620, -9999.000
 64680, -9999.000
 64740, -9999.000
 64800, -9999.000
 64860, -9999.000
 64920, -9999.000
 64980, -9999.000
 65040, -9999.000
 65100, -9999.000
 65160, -9999.000
 65220, -9999.000
 65280, -9999.000
 65340, -9999.000
 65400, -9999.000
 65460, -9999.000
 65520, -9999.000
 65580, -9999.000
 65640, -9999.000
 65700, -9999.000
 65760, -9999.000
 65820, -9999.000
 65880, -9999.000
 65940, -9999.000
 66000, -9999.000
 66060, -9999.000
 66120, -9999.000
 66180, -9999.000
 66240, -9999.000
 66300, -9999.000
 66360, -9999.000
 66420, -9999.000
 66480, -9999.000
 66540, -9999.000
 66600, -9999.000
 66660, -9999.000
 66720, -9999.000
 66780, -9999.000
 66840, -9999.000
 66900, -9999.000
 66960, -9999.000
 67020, -9999.000
 67080, -9999.000
 67140, -9999.000
 67200, -9999.000
 67260, -9999.000
 67320, -9999.000
 67380, -9999.000
 67440, -9999.000
 67500, -9999.000
 67560, -9999.000
 67620, -9999.000
 67680, -9999.000
 67740, -9999.000
 67800, -9999.000
 67860, -9999.000
 67920, -9999.000
 67980, -9999.000
 68040, -9999.000
 68100, -9999.000
 68160, -9999.000
 68220, -9999.000
 68280, -9999.000
 68340, -9999.000
 68400, -9999.000
 68460, -9999.000
 68520, -9999.000
 68580, -9999.000
 68640, -9999.000
 68700, -9999.000
 68760, -9999.000
 68820, -9999.000
 68880, -9999.000
 68940, -9999.000
 69000, -9999.000
 69060, -9999.000
 69120, -9999.000
 69180, -9999.000
 69240, -9999.000
 69300, -9999.000
 69360, -9999.000
 69420, -9999.000
 69480, -9999.000
 69540, -9999.000
 69600, -9999.000
 69660, -9999.000
 69720, -9999.000
 69780, -9999.000
 69840, -9999.000
 69900, -9999.000
 69960, -9999.000
 70020, -9999.000
 70080, -9999.000
 70140, -9999.000
 70200, -9999.000
 70260, -9999.000
 70320, -9999.000
 70380, -9999.000
 70440, -9999.000
 70500, -9999.000
 70560, -9999.000
 70620, -9999.000
 70680, -9999.000
 70740, -9999.000
 70800, -9999.000
 70860, -9999.000
 70920, -9999.000
 70980, -9999.000
 71040, -9999.000
 71100, -9999.000
 71160, -9999.000
 71220, -9999.000
 71280, -9999.000
 71340, -9999.000
 71400, -9999.000
 71460, -9999.000
 71520, -9999.000
 71580, -9999.000
 71640, -9999.000
 71700, -9999.000
 71760, -9999.000
 71820, -9999.000
 71880, -9999.000
 71940, -9999.000
 72000, -9999.000
 72060, -9999.000
 72120, -9999.000
 72180, -9999.000
 72240, -9999.000
 72300, -9999.000
 72360, -9999.000
 72420, -9999.000
 72480, -9999.000
 72540, -9999.000
 72600, -9999.000
 72660, -9999.000
 72720, -9999.000
 72780, -9999.000
 72840, -9999.000
 72900, -9999.000
 72960, -9999.000
 73020, -9999.000
 73080, -9999.000
 73140, -9999.000
 73200, -9999.000
 73260, -9999.000
 73320, -9999.000
 73380, -9999.000
 73440, -9999.000
 73500, -9999.000
 73560, -9999.000
 73620, -9999.000
 73680, -9999.000
 73740, -9999.000
 73800, -9999.000
 73860, -9999.000
 73920, -9999.000
 73980, -9999.000
 74040, -9999.000
 74100, -9999.000
 74160, -9999.000
 74220, -9999.000
 74280, -9999.000
 74340, -9999.000
 74400, -9999.000
 74460, -9999.000
 74520, -9999.000
 74580, -9999.000
 74640, -9999.000
 74700, -9999.000
 74760, -9999.000
 74820, -9999.000
 74880, -9999.000
 74940, -9999.000
 75000, -9999.000
 75060, -9999.000
 75120, -9999.000
 75180, -9999.000
 75240, -9999.000
 75300, -9999.000
 75360, -9999.000
 75420, -9999.000
 75480, -9999.000
 75540, -9999.000
 75600, -9999.000
 75660, -9999.000
 75720, -9999.000
 75780, -9999.000
 75840, -9999.000
 75900, -9999.000
 75960, -9999.000
 76020, -9999.000
 76080, -9999.000
 76140, -9999.000
 76200, -9999.000
 76260, -9999.000
 76320, -9999.000
 76380, -9999.000
 76440, -9999.000
 76500, -9999.000
 76560, -9999.000
 76620, -9999.000
 76680, -9999.000
 76740, -9999.000
 76800, -9999.000
 76860, -9999.000
 76920, -9999.000
 76980, -9999.000
 77040, -9999.000
 77100, -9999.000
 77160, -9999.000
 77220, -9999.000
 77280, -9999.000
 77340, -9999.000
 77400, -9999.000
 77460, -9999.000
 77520, -9999.000
 77580, -9999.000
 77640, -9999.000
 77700, -9999.000
 77760, -9999.000
 77820, -9999.000
 77880, -9999.000
 77940, -9999.000
 78000, -9999.000
 78060, -9999.000
 78120, -9999.000
 78180, -9999.000
 78240, -9999.000
 78300, -9999.000
 78360, -9999.000
 78420, -9999.000
 78480, -9999.000
 78540, -9999.000
 78600, -9999.000
 78660, -9999.000
 78720, -9999.000
 78780, -9999.000
 78840, -9999.000
 78900, -9999.000
 78960, -9999.000
 79020, -9999.000
 79080, -9999.000
 79140, -9999.000
 79200, -9999.000
 79260, -9999.000
 79320, -9999.000
 79380, -9999.000
 79440, -9999.000
 79500, -9999.000
 79560, -9999.000
 79620, -9999.000
 79680, -9999.000
 79740, -9999.000
 79800, -9999.000
 79860, -9999.000
 79920, -9999.000
 79980, -9999.000
 80040, -9999.000
 80100, -9999.000
 80160, -9999.000
 80220, -9999.000
 80280, -9999.000
 80340, -9999.000
 80400, -9999.000
 80460, -9999.000
 80520, -9999.000
 80580, -9999.000
 80640, -9999.000
 80700, -9999.000
 80760, -9999.000
 80820, -9999.000
 80880, -9999.000
 80940, -9999.000
 81000, -9999.000
 81060, -9999.000
 81120, -9999.000
 81180, -9999.000
 81240, -9999.000
 81300, -9999.000
 81360, -9999.000
 81420, -9999.000
 81480, -9999.000
 81540, -9999.000
 81600, -9999.000
 81660, -9999.000
 81720, -9999.000
 81780, -9999.000
 81840, -9999.000
 81900, -9999.000
 81960, -9999.000
 82020, -9999.000
 82080, -9999.000
 82140, -9999.000
 82200, -9999.000
 82260, -9999.000
 82320, -9999.000
 82380, -9999.000
 82440, -9999.000
 82500, -9999.000
 82560, -9999.000
 82620, -9999.000
 82680, -9999.000
 82740, -9999.000
 82800, -9999.000
 82860, -9999.000
 82920, -9999.000
 82980, -9999.000
 83040, -9999.000
 83100, -9999.000
 83160, -9999.000
 83220, -9999.000
 83280, -9999.000
 83340, -9999.000
 83400, -9999.000
 83460, -9999.000
 83520, -9999.000
 83580, -9999.000
 83640, -9999.000
 83700, -9999.000
 83760, -9999.000
 83820, -9999.000
 83880, -9999.000
 83940, -9999.000
 84000, -9999.000
 84060, -9999.000
 84120, -9999.000
 84180, -9999.000
 84240, -9999.000
 84300, -9999.000
 84360, -9999.000
 84420, -9999.000
 84480, -9999.000
 84540, -9999.000
 84600, -9999.000
 84660, -9999.000
 84720, -9999.000
 84780, -9999.000
 84840, -9999.000
 84900, -9999.000
 84960, -9999.000
 85020, -9999.000
 85080, -9999.000
 85140, -9999.000
 85200, -9999.000
 85260, -9999.000
 85320, -9999.000
 85380, -9999.000
 85440, -9999.000
 85500, -9999.000
 85560, -9999.000
 85620, -9999.000
 85680, -9999.000
 85740, -9999.000
 85800, -9999.000
 85860, -9999.000
 85920, -9999.000
 85980, -9999.000
 86040, -9999.000
 86100, -9999.000
 86160, -9999.000
 86220, -9999.000
 86280, -9999.000
 86340, -9999.000
