37, 1001
Michael A Robinson, Chris Jernigan, Subi Thakali
NOAA ESRL Chemical Sciences Laboratory and CIRES, U. of Colorado
NOAA Iodide CIMS Instrument
USOS
1, 1
2024, 07, 21, 2024, 07, 23
1
starttime_UTC, seconds_past_midnight, seconds_of_day_since_00:00:00_UTC
5
1, 1, 1, 1, 1
-9999, -9999, -9999, -9999, -9999
C4H7NO5_NOAACIMS, pptv, Gas_C4H7NO5_InSitu_S_AVMR, 
ISOPN_NOAACIMS, pptv, Gas_ISOPN_InSitu_S_AVMR, 
C5H10O3_NOAACIMS, pptv, Gas_C5H10O3_InSitu_S_AVMR, 
C5H9NO5_NOAACIMS, pptv, Gas_C5H9NO5_InSitu_S_AVMR, 
C10H17NO4_NOAACIMS, pptv, Gas_C10H17NO4_InSitu_S_AVMR, 
0
18
PI_CONTACT_INFO: 325 Broadway, R/CSD 7, Boulder, Colorado 80305; michael.a.robinson@noaa.gov; chris.jernigan@noaa.gov;
PLATFORM: NOAA CSL Mobile Lab
LOCATION: SLC, Utah
ASSOCIATED_DATA: 1Hz data also available on request.
INSTRUMENT_INFO: NOAA I- ToF CIMS
DATA_INFO: All data in parts per trillion by volume (pptv). 1 Hz data is available upon request.
UNCERTAINTY: TBD
ULOD_FLAG: -7777
ULOD_VALUE: N/A
LLOD_FLAG: -8888
LLOD_VALUE: N/A
DM_CONTACT_INFO: Nathan Howard; nathan.h.howard@noaa.gov
PROJECT_INFO: USOS, summer 2024. https://csl.noaa.gov/groups/csl7/measurements/2024usos/
STIPULATIONS_ON_USE: Users are strongly encouraged to contact the PI for proper data usage.
OTHER_COMMENTS: 
REVISION: RA
RA: Preliminary Data; For in-field use only
starttime_UTC, C4H7NO5_NOAACIMS, ISOPN_NOAACIMS, C5H10O3_NOAACIMS, C5H9NO5_NOAACIMS, C10H17NO4_NOAACIMS
     0,  7.485, 15.504, 178.722,  6.869,  0.345
    60,  7.448, 15.119, 177.842,  6.447,  0.198
   120,  7.644, 16.176, 179.120,  6.512,  0.216
   180,  7.926, 15.634, 176.373,  6.522,  0.227
   240,  8.225, 16.674, 182.791,  6.785,  0.220
   300, -9999.000, -9999.000, -9999.000, -9999.000, -9999.000
   360,  9.548, 18.842, 170.886,  7.585,  0.389
   420,  9.555, 20.648, 187.890,  7.749,  0.389
   480, 10.114, 22.974, 214.671,  8.315,  0.537
   540,  9.964, 23.217, 218.683,  8.265,  0.372
   600, 10.157, 23.533, 225.797,  7.675,  0.396
   660, 10.112, 23.897, 228.759,  7.871,  0.461
   720,  9.999, 24.869, 233.377,  8.389,  0.499
   780,  9.850, 24.504, 224.163,  7.944,  0.495
   840,  9.896, 24.194, 230.120,  8.126,  0.532
   900,  9.822, 25.150, 225.857,  7.996,  0.464
   960,  9.883, 25.302, 233.278,  7.973,  0.534
  1020,  9.863, 24.474, 233.334,  7.634,  0.396
  1080,  8.714, 25.724, 237.877,  7.268,  0.327
  1140,  6.610, 23.125, 233.311,  5.310,  0.137
  1200,  6.248, 22.307, 220.558,  5.005,  0.315
  1260,  6.246, 23.382, 217.938,  5.050,  0.508
  1320,  6.308, 24.692, 216.442,  4.941,  0.466
  1380,  6.399, 24.361, 215.745,  4.858,  0.376
  1440,  6.372, 25.182, 219.089,  5.072,  0.411
  1500,  6.485, 25.663, 217.932,  5.016,  0.492
  1560,  6.577, 25.793, 219.536,  5.493,  0.375
  1620,  6.769, 26.341, 224.426,  5.291,  0.434
  1680,  6.935, 25.562, 226.541,  5.317,  0.490
  1740,  6.940, 26.060, 228.525,  5.161,  0.388
  1800,  7.014, 27.446, 236.801,  5.469,  0.475
  1860,  6.926, 27.060, 245.779,  5.240,  0.164
  1920,  6.831, 26.779, 252.079,  5.353, -0.000
  1980,  6.912, 28.056, 260.695,  5.225,  0.289
  2040,  6.888, 28.384, 270.699,  5.310,  0.125
  2100,  6.898, 28.628, 271.087,  5.282,  0.215
  2160, -9999.000, -9999.000, -9999.000, -9999.000, -9999.000
  2220,  6.771, 28.400, 250.572,  5.381,  0.165
  2280,  6.864, 29.092, 281.195,  5.279,  0.234
  2340,  6.969, 28.692, 295.778,  5.224,  0.215
  2400,  6.845, 28.843, 301.983,  5.209,  0.186
  2460,  6.930, 28.842, 308.343,  5.208,  0.212
  2520,  7.076, 30.134, 317.568,  5.292,  0.234
  2580,  6.953, 28.828, 317.120,  5.395,  0.340
  2640,  7.014, 28.741, 314.502,  5.265,  0.255
  2700,  7.053, 28.992, 310.669,  5.365,  0.342
  2760,  7.147, 28.847, 310.855,  5.301,  0.392
  2820,  7.059, 29.301, 314.060,  5.233,  0.375
  2880,  6.938, 28.784, 297.555,  5.164,  0.381
  2940,  7.003, 28.631, 300.303,  5.089,  0.417
  3000,  6.928, 28.012, 292.249,  5.195,  0.401
  3060,  7.117, 28.158, 299.672,  5.308,  0.369
  3120,  7.016, 28.505, 288.730,  5.285,  0.441
  3180,  7.006, 28.209, 282.030,  5.175,  0.366
  3240,  7.010, 28.370, 286.308,  5.207,  0.344
  3300,  7.039, 28.269, 281.062,  5.195,  0.416
  3360,  6.959, 27.786, 290.970,  5.323,  0.359
  3420,  7.035, 27.771, 288.182,  5.405,  0.393
  3480,  7.008, 27.503, 286.631,  5.478,  0.460
  3540,  6.999, 27.793, 289.627,  5.308,  0.351
  3600,  6.986, 27.003, 283.390,  5.556,  0.312
  3660,  6.866, 23.881, 260.455,  5.234,  0.246
  3720,  6.654, 22.425, 241.980,  5.305,  0.247
  3780,  6.650, 22.809, 233.714,  5.280,  0.208
  3840,  6.698, 24.089, 234.892,  5.381,  0.373
  3900,  6.699, 25.306, 232.666,  5.336,  0.312
  3960,  6.732, 24.848, 232.413,  5.266,  0.357
  4020, -9999.000, -9999.000, -9999.000, -9999.000, -9999.000
  4080,  6.780, 24.812, 203.028,  5.609,  0.333
  4140,  6.830, 25.860, 219.808,  5.730,  0.352
  4200,  6.973, 25.571, 227.626,  5.703,  0.264
  4260,  6.981, 26.890, 237.683,  5.812,  0.314
  4320,  7.137, 27.490, 243.983,  5.846,  0.405
  4380,  7.074, 26.948, 243.306,  5.630,  0.298
  4440,  7.131, 27.728, 252.859,  5.861,  0.400
  4500,  7.034, 27.882, 257.021,  5.777,  0.361
  4560,  7.080, 28.008, 264.404,  5.813,  0.347
  4620,  7.106, 28.446, 268.089,  5.956,  0.427
  4680,  7.151, 28.944, 274.510,  6.280,  0.384
  4740,  7.310, 29.956, 279.636,  6.405,  0.446
  4800,  7.311, 30.071, 283.515,  6.441,  0.417
  4860,  7.267, 30.012, 281.883,  6.412,  0.500
  4920,  7.207, 30.224, 280.866,  6.368,  0.466
  4980,  7.278, 31.378, 283.104,  6.221,  0.471
  5040,  7.246, 30.657, 284.468,  6.131,  0.450
  5100,  7.197, 29.574, 283.988,  6.226,  0.467
  5160,  7.157, 30.132, 288.145,  6.139,  0.446
  5220,  7.169, 29.519, 287.976,  6.180,  0.470
  5280,  7.125, 30.054, 285.568,  6.202,  0.485
  5340,  7.206, 30.145, 287.294,  6.300,  0.480
  5400,  7.175, 31.029, 285.778,  6.213,  0.409
  5460,  7.139, 30.850, 275.415,  6.294,  0.492
  5520,  7.088, 31.896, 278.240,  6.154,  0.528
  5580,  7.040, 30.873, 276.988,  6.238,  0.435
  5640,  7.044, 31.051, 276.919,  5.969,  0.489
  5700,  7.025, 31.040, 274.565,  5.971,  0.470
  5760,  6.762, 29.376, 269.857,  5.836,  0.445
  5820,  6.738, 29.078, 269.131,  5.779,  0.500
  5880,  6.527, 27.293, 234.429,  5.686,  0.351
  5940,  6.492, 27.783, 245.089,  5.766,  0.415
  6000,  6.482, 29.223, 254.076,  5.794,  0.415
  6060,  6.631, 29.110, 260.248,  6.021,  0.390
  6120,  6.636, 29.445, 265.188,  6.100,  0.401
  6180,  6.633, 29.783, 269.754,  6.176,  0.487
  6240,  6.538, 29.602, 264.313,  5.891,  0.478
  6300,  6.542, 31.085, 266.701,  6.206,  0.475
  6360,  6.507, 30.883, 266.311,  6.036,  0.491
  6420,  6.492, 30.377, 267.342,  5.984,  0.476
  6480,  6.352, 30.088, 260.520,  5.918,  0.481
  6540,  6.418, 29.628, 257.447,  5.946,  0.466
  6600,  6.430, 30.510, 265.995,  5.992,  0.525
  6660,  6.356, 29.835, 264.042,  6.024,  0.493
  6720,  6.447, 30.730, 271.523,  6.133,  0.473
  6780,  6.431, 31.143, 276.361,  6.163,  0.397
  6840,  6.516, 31.767, 284.373,  6.359,  0.503
  6900,  6.459, 31.710, 279.271,  6.328,  0.500
  6960,  6.630, 32.691, 284.496,  6.470,  0.464
  7020,  6.465, 32.547, 281.723,  6.342,  0.478
  7080,  6.365, 31.745, 279.203,  6.482,  0.546
  7140,  6.379, 32.542, 274.418,  6.469,  0.448
  7200,  6.267, 32.567, 272.994,  6.142,  0.554
  7260,  6.316, 33.177, 271.489,  6.385,  0.528
  7320,  6.099, 31.748, 263.730,  6.347,  0.598
  7380,  5.907, 31.746, 255.552,  6.289,  0.530
  7440,  5.991, 31.672, 246.933,  6.244,  0.494
  7500,  5.985, 31.974, 242.984,  6.215,  0.573
  7560,  5.792, 30.772, 234.250,  6.097,  0.518
  7620,  5.778, 31.816, 229.385,  6.236,  0.522
  7680,  5.588, 33.391, 225.462,  6.091,  0.477
  7740,  5.469, 29.059, 192.336,  5.783,  0.199
  7800,  5.580, 30.744, 201.033,  5.993,  0.410
  7860,  5.587, 31.530, 208.787,  6.321,  0.535
  7920,  5.624, 31.398, 214.300,  6.273,  0.452
  7980,  5.614, 32.324, 211.510,  6.256,  0.509
  8040,  5.654, 32.068, 215.227,  6.199,  0.464
  8100,  5.432, 31.048, 213.711,  6.043,  0.591
  8160,  5.471, 31.404, 215.464,  6.109,  0.462
  8220,  5.502, 30.637, 208.847,  5.986,  0.476
  8280,  5.520, 31.504, 210.968,  6.059,  0.582
  8340,  5.435, 31.783, 211.058,  6.061,  0.481
  8400,  5.300, 30.652, 204.447,  6.042,  0.400
  8460,  5.435, 31.810, 208.688,  6.153,  0.554
  8520,  5.328, 31.209, 210.343,  6.241,  0.516
  8580,  5.262, 30.183, 204.328,  5.869,  0.461
  8640,  5.320, 32.105, 209.614,  6.088,  0.533
  8700,  5.300, 30.534, 207.823,  6.112,  0.469
  8760,  5.266, 29.565, 205.862,  5.994,  0.524
  8820,  5.178, 30.041, 207.102,  6.077,  0.554
  8880,  5.196, 29.942, 206.188,  6.045,  0.483
  8940,  5.178, 29.984, 205.317,  6.064,  0.494
  9000,  5.135, 28.809, 205.473,  5.928,  0.577
  9060,  5.067, 29.209, 200.838,  5.975,  0.416
  9120,  5.013, 28.416, 205.307,  6.025,  0.591
  9180,  5.044, 28.346, 203.015,  6.019,  0.435
  9240,  5.006, 27.333, 202.468,  5.961,  0.465
  9300,  4.903, 27.140, 197.629,  5.862,  0.409
  9360,  4.856, 26.998, 199.795,  5.978,  0.513
  9420,  4.907, 26.686, 200.263,  5.948,  0.467
  9480,  4.775, 26.668, 198.873,  5.729,  0.426
  9540,  4.859, 26.118, 195.739,  5.733,  0.495
  9600,  4.540, 23.543, 176.460,  5.724,  0.397
  9660,  4.592, 24.180, 184.301,  5.759,  0.378
  9720,  4.474, 23.638, 186.847,  5.965,  0.374
  9780,  4.482, 23.170, 185.651,  5.739,  0.386
  9840,  4.403, 23.426, 183.179,  5.810,  0.353
  9900,  4.418, 22.703, 184.840,  5.604,  0.414
  9960,  4.372, 22.413, 183.766,  5.609,  0.389
 10020,  4.272, 21.797, 183.997,  5.665,  0.314
 10080,  4.168, 21.133, 183.904,  5.496,  0.068
 10140,  4.291, 21.120, 181.420,  5.699,  0.449
 10200,  4.231, 21.218, 181.541,  5.561,  0.401
 10260,  4.209, 20.614, 182.187,  5.567,  0.463
 10320,  4.225, 20.583, 185.177,  5.768,  0.467
 10380,  4.232, 20.252, 182.578,  5.629,  0.389
 10440,  4.169, 19.895, 178.736,  5.510,  0.461
 10500,  4.181, 20.030, 177.278,  5.536,  0.371
 10560,  4.025, 18.796, 176.762,  5.621,  0.142
 10620,  4.060, 19.000, 176.924,  5.752,  0.451
 10680,  4.041, 18.768, 171.827,  5.592,  0.469
 10740,  3.990, 18.359, 175.235,  5.597,  0.458
 10800,  3.956, 18.405, 172.259,  5.640,  0.449
 10860,  3.905, 18.130, 171.761,  5.543,  0.482
 10920,  3.916, 17.661, 168.054,  5.573,  0.526
 10980,  3.846, 17.439, 167.806,  5.393,  0.464
 11040,  3.782, 17.146, 162.505,  5.292,  0.538
 11100,  3.713, 16.617, 158.645,  5.423,  0.518
 11160,  3.714, 16.967, 158.849,  5.363,  0.524
 11220,  3.674, 16.084, 154.660,  5.373,  0.456
 11280,  3.708, 16.400, 154.305,  5.546,  0.524
 11340,  3.632, 16.600, 151.343,  5.295,  0.550
 11400, -9999.000, -9999.000, -9999.000, -9999.000, -9999.000
 11460,  3.449, 15.164, 128.073,  5.262,  0.464
 11520,  3.503, 15.954, 131.347,  5.513,  0.523
 11580,  3.560, 15.818, 138.756,  5.542,  0.492
 11640,  3.535, 15.929, 135.453,  5.543,  0.416
 11700,  3.564, 15.208, 138.968,  5.609,  0.571
 11760,  3.614, 15.634, 141.423,  5.525,  0.527
 11820,  3.588, 15.329, 137.850,  5.619,  0.482
 11880,  3.598, 15.819, 138.860,  5.652,  0.497
 11940,  3.567, 15.845, 138.560,  5.733,  0.459
 12000,  3.577, 15.538, 138.023,  5.709,  0.447
 12060,  3.611, 15.820, 140.756,  5.814,  0.503
 12120,  3.585, 15.566, 139.829,  5.832,  0.512
 12180,  3.616, 15.997, 137.889,  5.751,  0.470
 12240,  3.586, 16.128, 138.888,  5.604,  0.454
 12300,  3.612, 15.969, 139.696,  5.983,  0.426
 12360,  3.539, 15.770, 142.066,  5.962,  0.516
 12420,  3.553, 16.316, 140.957,  5.906,  0.539
 12480,  3.452, 15.837, 131.788,  5.776,  0.469
 12540,  3.463, 15.436, 137.050,  6.121,  0.460
 12600,  3.536, 15.779, 138.330,  6.041,  0.457
 12660,  3.392, 14.893, 133.904,  6.057,  0.397
 12720,  3.359, 14.926, 133.150,  5.995,  0.448
 12780,  3.394, 14.666, 132.038,  5.910,  0.470
 12840,  3.312, 14.617, 131.139,  6.010,  0.391
 12900,  3.303, 14.152, 131.083,  5.961,  0.419
 12960,  3.202, 14.165, 128.993,  6.184,  0.348
 13020,  3.146, 14.026, 124.137,  6.119,  0.405
 13080,  3.073, 13.462, 126.238,  5.881,  0.390
 13140,  3.054, 13.063, 121.792,  6.027,  0.304
 13200,  3.049, 13.074, 119.234,  6.112,  0.310
 13260,  2.720, 13.594, 99.725,  6.016,  0.097
 13320,  2.858, 12.156, 107.682,  5.805,  0.226
 13380,  2.881, 11.949, 111.557,  5.902,  0.336
 13440,  2.784, 11.358, 109.287,  5.999,  0.299
 13500,  2.795, 11.584, 110.044,  5.746,  0.248
 13560,  2.726, 11.217, 110.071,  5.826,  0.339
 13620,  2.699, 11.132, 109.207,  6.008,  0.352
 13680,  2.695, 10.716, 108.548,  5.753,  0.403
 13740,  2.631, 10.591, 105.660,  5.755,  0.259
 13800,  2.631, 10.595, 107.385,  5.841,  0.358
 13860,  2.704, 10.879, 107.557,  5.665,  0.293
 13920,  2.626, 10.151, 105.510,  5.673,  0.312
 13980,  2.540,  9.878, 104.973,  5.851,  0.354
 14040,  2.547,  9.677, 103.732,  5.680,  0.272
 14100,  2.424,  9.280, 101.895,  5.826,  0.318
 14160,  2.412,  9.233, 101.169,  5.764,  0.326
 14220,  2.384,  8.815, 99.976,  5.617,  0.355
 14280,  2.442,  8.848, 99.859,  5.601,  0.393
 14340,  2.351,  8.682, 97.777,  5.786,  0.400
 14400,  2.381,  8.573, 98.590,  5.908,  0.357
 14460,  2.400,  8.974, 99.330,  5.923,  0.390
 14520,  2.359,  8.839, 101.363,  5.959,  0.381
 14580,  2.361,  8.760, 98.163,  6.113,  0.472
 14640,  2.382,  8.668, 100.613,  6.054,  0.521
 14700,  2.281,  8.653, 96.534,  5.908,  0.417
 14760,  2.286,  8.482, 97.451,  5.821,  0.443
 14820,  2.279,  8.389, 99.588,  6.043,  0.458
 14880,  2.251,  8.368, 96.263,  5.886,  0.506
 14940,  2.257,  8.749, 97.658,  5.873,  0.458
 15000,  2.294,  8.244, 99.489,  6.278,  0.529
 15060,  2.289,  8.286, 96.902,  6.180,  0.610
 15120, -9999.000, -9999.000, -9999.000, -9999.000, -9999.000
 15180,  2.283,  8.263, 88.688,  5.999,  0.504
 15240,  2.303,  8.700, 93.917,  6.080,  0.491
 15300,  2.271,  8.939, 94.387,  6.182,  0.475
 15360,  2.284,  9.084, 95.139,  6.373,  0.505
 15420,  2.318,  9.191, 98.051,  6.508,  0.533
 15480,  2.318,  8.747, 97.616,  6.516,  0.617
 15540,  2.319,  8.527, 99.970,  6.816,  0.607
 15600,  2.322,  8.995, 98.067,  6.746,  0.630
 15660,  2.377,  8.811, 99.141,  6.906,  0.667
 15720,  2.281,  9.080, 100.868,  6.936,  0.702
 15780,  2.322,  8.950, 101.916,  6.864,  0.697
 15840,  2.313,  8.820, 101.050,  6.988,  0.627
 15900,  2.313,  9.021, 102.246,  7.112,  0.626
 15960,  2.330,  9.003, 101.052,  6.873,  0.701
 16020,  2.350,  9.067, 100.482,  6.995,  0.621
 16080,  2.315,  9.156, 100.813,  6.915,  0.728
 16140,  2.322,  9.265, 100.389,  6.716,  0.674
 16200,  2.359,  8.907, 98.053,  6.581,  0.658
 16260,  2.347,  9.566, 102.719,  6.981,  0.662
 16320,  2.342,  9.207, 101.097,  6.861,  0.640
 16380,  2.350,  9.052, 99.787,  6.796,  0.675
 16440,  2.357,  9.600, 100.243,  6.897,  0.711
 16500,  2.277,  9.216, 99.673,  6.698,  0.692
 16560,  2.309,  9.159, 97.646,  6.727,  0.652
 16620,  2.258,  9.126, 96.462,  7.141,  0.692
 16680,  2.234,  8.864, 94.401,  6.590,  0.598
 16740,  2.214,  8.529, 92.608,  6.613,  0.543
 16800,  2.236,  8.985, 90.912,  6.723,  0.557
 16860,  2.170,  8.630, 92.705,  6.721,  0.624
 16920,  2.156,  8.175, 92.859,  6.666,  0.498
 16980,  2.094,  7.914, 80.504,  6.563,  0.513
 17040,  2.146,  8.425, 85.041,  6.616,  0.617
 17100,  2.184,  8.420, 83.905,  6.568,  0.598
 17160,  2.179,  8.173, 86.880,  6.837,  0.614
 17220,  2.159,  8.037, 83.933,  6.758,  0.591
 17280,  2.172,  8.309, 85.998,  6.721,  0.668
 17340,  2.201,  7.955, 83.372,  6.650,  0.647
 17400,  2.157,  8.044, 83.791,  6.699,  0.631
 17460,  2.144,  7.707, 85.452,  6.752,  0.723
 17520,  2.139,  7.827, 84.974,  6.788,  0.723
 17580,  2.122,  7.823, 82.996,  6.572,  0.709
 17640,  2.115,  7.923, 84.710,  6.488,  0.715
 17700,  2.105,  7.867, 82.286,  6.625,  0.663
 17760,  2.140,  7.876, 84.697,  6.778,  0.682
 17820,  2.101,  7.366, 81.566,  6.675,  0.757
 17880,  2.111,  7.474, 83.030,  6.700,  0.629
 17940,  2.088,  7.645, 80.965,  6.512,  0.699
 18000,  2.071,  7.373, 79.718,  6.532,  0.697
 18060,  2.080,  7.507, 83.639,  6.538,  0.751
 18120,  2.055,  7.387, 82.110,  6.505,  0.774
 18180,  2.083,  7.182, 82.774,  6.502,  0.719
 18240,  2.115,  7.541, 82.136,  6.471,  0.721
 18300,  2.046,  7.496, 80.892,  6.414,  0.749
 18360,  2.044,  7.149, 80.812,  6.448,  0.708
 18420,  2.103,  7.012, 79.463,  6.453,  0.604
 18480,  2.043,  6.883, 79.240,  6.239,  0.740
 18540,  2.038,  7.116, 77.378,  6.280,  0.721
 18600,  2.013,  6.885, 75.379,  6.262,  0.759
 18660,  2.047,  7.085, 78.028,  6.358,  0.739
 18720,  2.039,  6.592, 73.852,  6.231,  0.616
 18780, -9999.000, -9999.000, -9999.000, -9999.000, -9999.000
 18840,  1.912,  6.115, 61.947,  6.106,  0.603
 18900,  1.935,  6.241, 63.686,  6.177,  0.743
 18960,  1.960,  6.274, 65.463,  6.382,  0.699
 19020,  1.932,  6.148, 65.363,  6.198,  0.692
 19080,  1.973,  6.230, 66.972,  6.223,  0.705
 19140,  1.965,  5.717, 64.959,  6.126,  0.629
 19200,  1.999,  5.720, 65.114,  6.244,  0.668
 19260,  1.959,  5.902, 64.184,  6.041,  0.619
 19320,  1.956,  5.874, 63.415,  5.943,  0.610
 19380,  1.939,  6.035, 65.206,  6.085,  0.637
 19440,  1.874,  5.699, 65.673,  6.093,  0.699
 19500,  1.898,  5.869, 64.986,  6.037,  0.681
 19560,  1.900,  5.723, 65.184,  5.946,  0.695
 19620,  1.899,  5.755, 65.456,  5.998,  0.648
 19680,  1.912,  5.600, 65.505,  5.922,  0.659
 19740,  1.940,  5.620, 65.914,  6.016,  0.730
 19800,  1.900,  5.406, 65.361,  5.840,  0.685
 19860,  1.893,  5.465, 64.373,  6.097,  0.580
 19920,  1.957,  5.483, 65.020,  5.990,  0.665
 19980,  1.895,  5.613, 66.042,  5.819,  0.703
 20040,  1.904,  5.464, 65.373,  6.198,  0.716
 20100,  1.842,  5.281, 63.971,  5.934,  0.724
 20160,  1.914,  5.623, 66.350,  6.074,  0.605
 20220,  1.915,  5.842, 66.834,  5.899,  0.639
 20280,  1.939,  5.608, 69.995,  5.960,  0.609
 20340,  1.895,  5.440, 68.178,  6.158,  0.566
 20400,  1.876,  5.412, 67.459,  6.132,  0.578
 20460,  1.926,  5.285, 69.128,  6.429,  0.680
 20520,  1.895,  5.186, 68.264,  6.320,  0.650
 20580,  1.966,  5.308, 67.207,  6.299,  0.645
 20640, -9999.000, -9999.000, -9999.000, -9999.000, -9999.000
 20700,  1.888,  4.915, 63.485,  6.089,  0.565
 20760,  1.886,  5.186, 64.696,  6.429,  0.611
 20820,  1.900,  5.135, 64.969,  6.309,  0.558
 20880,  1.947,  4.988, 69.421,  6.137,  0.650
 20940,  1.911,  5.231, 69.665,  6.017,  0.677
 21000,  1.939,  5.234, 72.013,  6.176,  0.529
 21060,  1.889,  5.096, 70.962,  6.190,  0.627
 21120,  1.899,  5.104, 69.725,  6.441,  0.619
 21180,  1.892,  5.484, 68.667,  6.434,  0.591
 21240,  1.895,  5.418, 68.097,  6.505,  0.573
 21300,  1.878,  5.332, 66.466,  6.216,  0.586
 21360,  1.862,  5.347, 67.035,  6.198,  0.612
 21420,  1.849,  5.252, 66.981,  6.256,  0.584
 21480,  1.897,  5.330, 68.831,  6.338,  0.600
 21540,  1.887,  5.162, 67.312,  6.253,  0.609
 21600,  1.871,  5.538, 66.363,  6.175,  0.575
 21660,  1.888,  5.220, 67.032,  6.185,  0.625
 21720,  1.922,  5.457, 65.706,  6.261,  0.558
 21780,  1.867,  5.286, 65.879,  6.287,  0.535
 21840,  1.863,  5.560, 64.709,  6.313,  0.612
 21900,  1.896,  5.307, 63.413,  6.197,  0.595
 21960,  1.883,  5.456, 64.798,  6.463,  0.680
 22020,  1.865,  5.112, 64.095,  6.159,  0.625
 22080,  1.830,  5.297, 65.016,  6.094,  0.617
 22140,  1.851,  5.626, 65.356,  6.103,  0.612
 22200,  1.866,  5.247, 65.811,  6.217,  0.599
 22260,  1.857,  5.418, 66.436,  5.987,  0.613
 22320,  1.888,  5.590, 67.335,  6.118,  0.702
 22380,  1.869,  5.462, 68.107,  6.155,  0.672
 22440,  1.877,  5.133, 66.896,  6.142,  0.661
 22500, -9999.000, -9999.000, -9999.000, -9999.000, -9999.000
 22560,  1.818,  5.193, 61.643,  5.861,  0.497
 22620,  1.810,  5.397, 63.729,  6.168,  0.602
 22680,  1.851,  5.652, 64.056,  5.916,  0.600
 22740,  1.884,  5.308, 66.861,  5.976,  0.648
 22800,  1.813,  5.329, 67.999,  5.907,  0.630
 22860,  1.851,  5.380, 67.820,  5.903,  0.677
 22920,  1.880,  5.245, 71.360,  6.145,  0.691
 22980,  1.850,  5.135, 69.486,  6.124,  0.679
 23040,  1.871,  5.282, 70.940,  6.220,  0.753
 23100,  1.875,  5.027, 69.787,  6.161,  0.654
 23160,  1.847,  5.464, 67.318,  6.162,  0.662
 23220,  1.843,  5.000, 68.629,  6.166,  0.702
 23280,  1.826,  5.161, 68.646,  6.545,  0.665
 23340,  1.838,  4.964, 67.860,  6.364,  0.755
 23400,  1.815,  5.007, 67.089,  6.347,  0.714
 23460,  1.818,  4.744, 68.164,  6.346,  0.731
 23520,  1.837,  4.783, 68.756,  6.327,  0.759
 23580,  1.868,  4.614, 67.905,  6.418,  0.619
 23640,  1.810,  4.705, 66.631,  6.312,  0.689
 23700,  1.828,  4.378, 64.878,  6.361,  0.762
 23760,  1.838,  4.176, 63.930,  6.547,  0.673
 23820,  1.810,  4.131, 64.456,  6.501,  0.591
 23880,  1.785,  4.128, 61.166,  6.460,  0.664
 23940,  1.762,  3.917, 61.497,  6.404,  0.721
 24000,  1.771,  3.690, 59.441,  6.278,  0.799
 24060,  1.760,  3.876, 57.784,  6.165,  0.704
 24120,  1.797,  3.816, 57.944,  6.082,  0.633
 24180,  1.737,  3.792, 56.965,  6.011,  0.701
 24240,  1.716,  3.585, 56.133,  6.221,  0.726
 24300,  1.731,  3.481, 55.616,  6.243,  0.698
 24360,  1.655,  3.208, 50.300,  6.297,  0.607
 24420,  1.679,  3.395, 53.180,  6.024,  0.753
 24480,  1.703,  3.074, 52.074,  6.001,  0.620
 24540,  1.673,  2.975, 51.900,  5.977,  0.582
 24600,  1.690,  3.105, 52.906,  6.108,  0.661
 24660,  1.731,  3.301, 51.113,  6.003,  0.594
 24720,  1.712,  2.868, 51.591,  5.899,  0.658
 24780,  1.658,  3.055, 49.554,  5.865,  0.666
 24840,  1.729,  2.865, 48.285,  5.877,  0.587
 24900,  1.697,  2.928, 50.039,  6.216,  0.630
 24960,  1.711,  2.780, 47.743,  6.021,  0.568
 25020,  1.637,  2.913, 48.857,  6.143,  0.563
 25080,  1.650,  2.833, 47.753,  6.385,  0.614
 25140,  1.713,  2.620, 46.971,  6.227,  0.655
 25200,  1.611,  2.572, 48.464,  6.407,  0.573
 25260,  1.710,  2.525, 46.246,  6.422,  0.581
 25320,  1.673,  2.510, 45.325,  6.466,  0.542
 25380,  1.691,  2.532, 47.519,  6.519,  0.566
 25440,  1.685,  2.553, 47.205,  6.398,  0.534
 25500,  1.701,  2.519, 46.246,  6.634,  0.625
 25560,  1.742,  2.609, 46.688,  6.556,  0.506
 25620,  1.702,  2.526, 46.309,  6.462,  0.467
 25680,  1.725,  2.533, 46.372,  6.399,  0.535
 25740,  1.715,  2.669, 46.238,  6.598,  0.458
 25800,  1.755,  2.637, 45.165,  6.706,  0.497
 25860,  1.744,  2.561, 47.372,  6.718,  0.476
 25920,  1.718,  2.637, 45.037,  6.659,  0.479
 25980,  1.766,  2.547, 47.227,  6.793,  0.525
 26040,  1.739,  2.357, 44.942,  6.578,  0.475
 26100,  1.739,  2.494, 45.932,  6.603,  0.522
 26160, -9999.000, -9999.000, -9999.000, -9999.000, -9999.000
 26220,  1.600,  2.493, 37.645,  6.357,  0.562
 26280,  1.656,  2.186, 40.404,  6.448,  0.496
 26340,  1.697,  2.603, 43.052,  6.777,  0.463
 26400,  1.748,  2.553, 42.967,  6.720,  0.387
 26460,  1.742,  2.654, 44.068,  6.700,  0.615
 26520,  1.738,  2.465, 43.468,  6.782,  0.623
 26580,  1.722,  2.402, 44.235,  6.823,  0.521
 26640,  1.729,  2.299, 43.647,  6.595,  0.572
 26700,  1.725,  2.402, 43.829,  6.849,  0.597
 26760,  1.710,  2.548, 43.156,  6.839,  0.544
 26820,  1.728,  2.663, 44.406,  6.597,  0.601
 26880,  1.705,  2.439, 43.848,  6.841,  0.596
 26940,  1.734,  2.398, 43.814,  6.821,  0.587
 27000,  1.719,  2.390, 43.883,  6.736,  0.703
 27060,  1.672,  2.403, 42.978,  6.731,  0.608
 27120,  1.704,  2.241, 42.547,  6.691,  0.661
 27180,  1.714,  2.283, 42.331,  6.545,  0.563
 27240,  1.720,  2.210, 42.615,  6.686,  0.596
 27300,  1.664,  2.240, 42.364,  6.496,  0.619
 27360,  1.684,  1.893, 43.549,  6.458,  0.551
 27420,  1.664,  2.407, 42.252,  6.175,  0.511
 27480,  1.664,  2.117, 43.276,  6.386,  0.584
 27540,  1.652,  2.292, 42.270,  6.503,  0.679
 27600,  1.633,  2.395, 41.364,  6.377,  0.579
 27660,  1.656,  2.108, 41.966,  6.357,  0.566
 27720,  1.632,  2.248, 41.075,  6.427,  0.598
 27780,  1.625,  2.029, 42.953,  6.450,  0.640
 27840,  1.642,  2.117, 42.056,  6.554,  0.577
 27900,  1.622,  2.065, 41.275,  6.555,  0.636
 27960,  1.623,  2.101, 42.055,  6.488,  0.601
 28020, -9999.000, -9999.000, -9999.000, -9999.000, -9999.000
 28080,  1.520,  1.818, 38.008,  6.261,  0.546
 28140,  1.588,  2.273, 40.474,  6.309,  0.565
 28200,  1.671,  2.029, 40.052,  6.362,  0.661
 28260,  1.614,  2.074, 40.091,  6.355,  0.570
 28320,  1.639,  2.290, 39.936,  6.341,  0.742
 28380,  1.631,  2.088, 39.238,  6.523,  0.670
 28440,  1.618,  1.950, 39.515,  6.360,  0.614
 28500,  1.598,  2.087, 39.201,  6.094,  0.652
 28560,  1.624,  2.085, 38.129,  6.282,  0.698
 28620,  1.641,  2.126, 40.141,  6.288,  0.691
 28680,  1.631,  2.111, 39.372,  6.260,  0.718
 28740,  1.606,  2.195, 39.226,  6.180,  0.727
 28800,  1.640,  2.243, 39.891,  6.367,  0.706
 28860,  1.616,  2.294, 38.175,  6.252,  0.644
 28920,  1.613,  2.047, 38.416,  6.175,  0.696
 28980,  1.589,  2.114, 40.121,  6.286,  0.767
 29040,  1.636,  2.096, 38.410,  6.288,  0.662
 29100,  1.676,  2.163, 38.953,  6.163,  0.749
 29160,  1.600,  2.393, 39.591,  6.332,  0.759
 29220,  1.652,  2.190, 37.935,  6.312,  0.764
 29280,  1.667,  2.251, 39.085,  6.181,  0.770
 29340,  1.643,  2.458, 38.995,  6.321,  0.717
 29400,  1.617,  2.079, 38.314,  6.164,  0.622
 29460,  1.649,  2.326, 40.477,  6.266,  0.752
 29520,  1.660,  2.453, 40.548,  6.286,  0.764
 29580,  1.640,  2.406, 38.358,  6.192,  0.745
 29640,  1.677,  2.694, 40.856,  6.371,  0.792
 29700,  1.629,  2.248, 39.836,  6.191,  0.784
 29760,  1.677,  2.515, 38.559,  6.230,  0.727
 29820,  1.662,  2.375, 39.060,  6.134,  0.748
 29880, -9999.000, -9999.000, -9999.000, -9999.000, -9999.000
 29940,  1.563,  2.179, 34.838,  5.909,  0.661
 30000,  1.586,  2.233, 37.170,  5.980,  0.687
 30060,  1.637,  2.378, 36.732,  6.291,  0.640
 30120,  1.649,  2.313, 38.993,  6.219,  0.730
 30180,  1.590,  2.289, 37.838,  6.116,  0.719
 30240,  1.666,  2.079, 36.725,  6.132,  0.663
 30300,  1.640,  2.074, 38.590,  6.057,  0.756
 30360,  1.619,  2.094, 37.541,  5.881,  0.745
 30420,  1.622,  2.275, 38.792,  5.982,  0.679
 30480,  1.635,  2.264, 39.325,  5.966,  0.729
 30540,  1.625,  2.049, 36.843,  5.822,  0.652
 30600,  1.611,  2.075, 36.229,  5.865,  0.705
 30660,  1.608,  2.283, 40.218,  5.761,  0.779
 30720,  1.624,  2.106, 38.712,  5.855,  0.695
 30780,  1.621,  1.935, 38.037,  5.940,  0.627
 30840,  1.580,  2.063, 39.027,  5.842,  0.669
 30900,  1.627,  2.034, 37.373,  5.875,  0.668
 30960,  1.583,  1.966, 38.259,  5.727,  0.661
 31020,  1.593,  2.024, 38.896,  5.906,  0.731
 31080,  1.651,  2.057, 39.640,  5.957,  0.710
 31140,  1.639,  2.009, 40.434,  5.987,  0.735
 31200,  1.665,  2.081, 40.874,  6.127,  0.728
 31260,  1.639,  2.362, 40.541,  6.227,  0.766
 31320,  1.659,  2.258, 40.403,  6.133,  0.760
 31380,  1.643,  2.137, 41.562,  6.175,  0.690
 31440,  1.661,  2.195, 40.950,  6.147,  0.742
 31500,  1.652,  2.223, 42.012,  6.116,  0.770
 31560,  1.677,  2.382, 42.702,  6.059,  0.755
 31620,  1.639,  2.043, 40.375,  6.112,  0.715
 31680,  1.631,  2.205, 41.047,  5.907,  0.728
 31740,  1.497,  1.796, 37.101,  5.674,  0.475
 31800,  1.574,  1.940, 36.871,  5.795,  0.583
 31860,  1.584,  1.879, 39.440,  6.056,  0.706
 31920,  1.635,  2.079, 39.401,  5.917,  0.695
 31980,  1.636,  2.043, 39.317,  6.011,  0.712
 32040,  1.653,  1.641, 39.867,  5.967,  0.761
 32100,  1.619,  1.784, 37.665,  5.639,  0.670
 32160,  1.599,  1.846, 38.438,  5.730,  0.693
 32220,  1.595,  1.836, 38.611,  5.704,  0.678
 32280,  1.602,  1.989, 39.719,  5.802,  0.679
 32340,  1.589,  1.882, 37.933,  5.734,  0.734
 32400,  1.570,  1.963, 40.148,  5.769,  0.769
 32460,  1.590,  1.908, 38.594,  5.670,  0.698
 32520,  1.592,  1.943, 36.852,  5.657,  0.611
 32580,  1.585,  1.773, 38.565,  5.840,  0.703
 32640,  1.594,  1.865, 37.501,  5.564,  0.620
 32700,  1.589,  1.975, 37.537,  5.625,  0.747
 32760,  1.570,  1.966, 39.008,  5.887,  0.635
 32820,  1.546,  1.991, 37.154,  5.656,  0.638
 32880,  1.593,  1.962, 36.833,  5.679,  0.637
 32940,  1.587,  1.946, 38.575,  5.876,  0.737
 33000,  1.633,  2.231, 38.658,  5.711,  0.723
 33060,  1.584,  2.201, 38.538,  5.820,  0.749
 33120,  1.642,  2.295, 40.205,  6.022,  0.722
 33180,  1.632,  2.231, 39.224,  5.942,  0.782
 33240,  1.617,  2.344, 37.982,  5.970,  0.685
 33300,  1.614,  2.144, 38.408,  5.833,  0.762
 33360,  1.605,  2.029, 38.037,  5.543,  0.729
 33420,  1.551,  1.932, 37.630,  5.521,  0.676
 33480,  1.573,  1.940, 37.339,  5.604,  0.777
 33540,  1.552,  1.757, 36.972,  5.547,  0.779
 33600,  1.355,  1.872, 30.864,  4.953,  0.528
 33660,  1.538,  1.778, 32.436,  5.310,  0.578
 33720,  1.524,  1.841, 33.806,  5.443,  0.572
 33780,  1.536,  1.857, 34.800,  5.219,  0.667
 33840,  1.546,  1.777, 35.787,  5.282,  0.702
 33900,  1.569,  1.759, 35.495,  5.291,  0.643
 33960,  1.611,  1.846, 35.897,  5.360,  0.596
 34020,  1.568,  1.902, 35.728,  5.411,  0.672
 34080,  1.588,  1.782, 35.676,  5.360,  0.649
 34140,  1.574,  1.544, 36.598,  5.202,  0.669
 34200,  1.573,  1.938, 35.821,  5.282,  0.637
 34260,  1.534,  1.774, 35.369,  5.276,  0.556
 34320,  1.576,  1.697, 35.831,  5.404,  0.598
 34380,  1.593,  1.547, 34.999,  5.278,  0.627
 34440,  1.603,  1.718, 35.006,  5.292,  0.668
 34500,  1.605,  1.643, 36.171,  5.410,  0.714
 34560,  1.549,  1.680, 36.689,  5.233,  0.624
 34620,  1.597,  1.643, 36.107,  5.261,  0.602
 34680,  1.551,  1.676, 36.111,  5.400,  0.694
 34740,  1.588,  1.770, 34.946,  5.310,  0.462
 34800,  1.602,  1.763, 35.312,  5.329,  0.646
 34860,  1.569,  1.497, 36.473,  5.519,  0.548
 34920,  1.563,  1.860, 36.797,  5.357,  0.567
 34980,  1.571,  1.619, 36.327,  5.303,  0.625
 35040,  1.580,  1.569, 36.865,  5.360,  0.639
 35100,  1.566,  1.483, 34.984,  5.152,  0.480
 35160,  1.580,  1.530, 34.764,  5.173,  0.604
 35220,  1.573,  1.663, 36.097,  5.253,  0.492
 35280,  1.578,  1.336, 37.137,  5.212,  0.588
 35340,  1.593,  1.713, 35.216,  5.357,  0.594
 35400,  1.636,  1.409, 36.597,  5.509,  0.490
 35460,  1.537,  1.609, 32.407,  5.126,  0.472
 35520,  1.562,  1.726, 32.570,  5.182,  0.494
 35580,  1.555,  1.781, 33.739,  5.400,  0.555
 35640,  1.574,  1.638, 34.701,  5.303,  0.523
 35700,  1.573,  1.568, 35.097,  5.377,  0.507
 35760,  1.529,  1.529, 33.726,  5.272,  0.489
 35820,  1.543,  1.636, 34.728,  5.365,  0.575
 35880,  1.564,  1.704, 35.155,  5.575,  0.552
 35940,  1.543,  1.559, 34.089,  5.526,  0.564
 36000,  1.579,  1.726, 35.671,  5.651,  0.588
 36060,  1.551,  1.794, 35.111,  5.473,  0.570
 36120,  1.524,  1.317, 34.433,  5.444,  0.555
 36180,  1.505,  1.494, 33.997,  5.384,  0.580
 36240,  1.540,  1.496, 34.901,  5.519,  0.648
 36300,  1.588,  1.601, 35.971,  5.646,  0.623
 36360,  1.579,  1.661, 36.424,  5.961,  0.614
 36420,  1.524,  1.776, 35.352,  5.830,  0.613
 36480,  1.512,  1.594, 36.951,  5.631,  0.567
 36540,  1.555,  1.689, 35.295,  5.750,  0.590
 36600,  1.632,  1.868, 36.163,  6.078,  0.485
 36660,  1.572,  1.785, 37.092,  5.873,  0.545
 36720,  1.549,  1.616, 37.500,  5.826,  0.657
 36780,  1.509,  1.760, 36.455,  5.815,  0.626
 36840,  1.543,  1.695, 34.671,  5.699,  0.662
 36900,  1.629,  2.028, 36.900,  5.839,  0.589
 36960,  1.663,  1.971, 37.264,  5.986,  0.642
 37020,  1.561,  1.438, 36.547,  5.922,  0.575
 37080,  1.555,  1.675, 36.662,  5.625,  0.619
 37140,  1.530,  1.522, 35.740,  5.749,  0.654
 37200,  1.510,  1.530, 34.860,  5.589,  0.543
 37260, -9999.000, -9999.000, -9999.000, -9999.000, -9999.000
 37320,  1.449,  1.592, 30.620,  5.271,  0.509
 37380,  1.490,  1.415, 32.851,  5.452,  0.482
 37440,  1.537,  1.481, 33.256,  5.601,  0.630
 37500,  1.473,  1.539, 34.023,  5.536,  0.638
 37560,  1.509,  1.305, 33.611,  5.511,  0.580
 37620,  1.521,  1.344, 32.933,  5.321,  0.559
 37680,  1.480,  1.425, 32.492,  5.457,  0.603
 37740,  1.486,  1.470, 33.598,  5.287,  0.551
 37800,  1.479,  1.365, 33.449,  5.252,  0.566
 37860,  1.509,  1.335, 33.198,  5.255,  0.571
 37920,  1.527,  1.474, 34.705,  5.251,  0.572
 37980,  1.523,  1.462, 33.840,  5.426,  0.587
 38040,  1.524,  1.539, 34.096,  5.302,  0.526
 38100,  1.491,  1.531, 33.730,  5.213,  0.499
 38160,  1.464,  1.583, 33.974,  5.171,  0.629
 38220,  1.509,  1.524, 32.550,  5.143,  0.558
 38280,  1.515,  1.385, 32.170,  5.128,  0.552
 38340,  1.493,  1.564, 33.842,  5.139,  0.540
 38400,  1.459,  1.403, 34.584,  5.234,  0.540
 38460,  1.506,  1.539, 33.306,  5.241,  0.573
 38520,  1.474,  1.634, 34.332,  5.277,  0.550
 38580,  1.476,  1.564, 33.360,  5.111,  0.550
 38640,  1.487,  1.430, 32.375,  5.106,  0.457
 38700,  1.505,  1.503, 33.780,  5.103,  0.520
 38760,  1.519,  1.501, 33.601,  5.257,  0.586
 38820,  1.489,  1.654, 33.802,  5.122,  0.570
 38880,  1.515,  1.651, 34.258,  5.189,  0.599
 38940,  1.504,  1.699, 33.932,  5.147,  0.498
 39000,  1.528,  1.753, 33.714,  5.108,  0.477
 39060,  1.512,  1.553, 33.098,  5.337,  0.599
 39120, -9999.000, -9999.000, -9999.000, -9999.000, -9999.000
 39180,  1.395,  1.464, 31.385,  5.167,  0.488
 39240,  1.488,  1.592, 32.699,  5.064,  0.599
 39300,  1.487,  1.556, 32.785,  5.100,  0.585
 39360,  1.456,  1.757, 31.352,  5.122,  0.580
 39420,  1.486,  1.473, 32.524,  5.226,  0.526
 39480,  1.490,  1.362, 33.337,  5.167,  0.516
 39540,  1.438,  1.455, 33.155,  5.172,  0.541
 39600,  1.498,  1.594, 33.778,  5.225,  0.553
 39660,  1.493,  1.530, 33.860,  5.099,  0.586
 39720,  1.499,  1.458, 32.830,  5.180,  0.423
 39780,  1.500,  1.350, 33.529,  5.273,  0.616
 39840,  1.543,  1.630, 34.902,  5.031,  0.624
 39900,  1.516,  1.401, 33.412,  5.155,  0.563
 39960,  1.485,  1.478, 32.527,  5.060,  0.525
 40020,  1.490,  1.567, 33.079,  5.190,  0.487
 40080,  1.451,  1.435, 32.719,  5.092,  0.492
 40140,  1.453,  1.363, 33.200,  5.003,  0.561
 40200,  1.510,  1.576, 34.555,  5.156,  0.702
 40260,  1.465,  1.491, 33.673,  5.229,  0.600
 40320,  1.496,  1.557, 34.190,  5.221,  0.592
 40380,  1.508,  1.429, 33.546,  5.204,  0.591
 40440,  1.499,  1.142, 33.224,  5.009,  0.565
 40500,  1.452,  1.340, 32.781,  5.163,  0.607
 40560,  1.450,  1.365, 35.398,  5.136,  0.623
 40620,  1.523,  1.317, 33.275,  4.895,  0.696
 40680,  1.471,  1.396, 32.804,  5.067,  0.653
 40740,  1.472,  1.391, 33.953,  5.186,  0.704
 40800,  1.463,  1.437, 33.194,  5.139,  0.648
 40860,  1.492,  1.196, 33.084,  4.924,  0.638
 40920,  1.425,  1.694, 34.387,  5.214,  0.589
 40980, -9999.000, -9999.000, -9999.000, -9999.000, -9999.000
 41040,  1.409,  1.372, 28.070,  4.793,  0.554
 41100,  1.422,  1.435, 30.662,  5.007,  0.611
 41160,  1.427,  1.500, 32.148,  4.779,  0.573
 41220,  1.475,  1.509, 31.906,  5.144,  0.589
 41280,  1.438,  1.169, 30.953,  5.027,  0.655
 41340,  1.467,  1.403, 32.466,  4.940,  0.615
 41400,  1.469,  1.435, 32.082,  4.963,  0.616
 41460,  1.475,  1.539, 32.320,  5.008,  0.598
 41520,  1.494,  1.380, 33.139,  5.176,  0.664
 41580,  1.488,  1.507, 31.647,  4.819,  0.644
 41640,  1.510,  1.394, 30.747,  4.898,  0.577
 41700,  1.456,  1.186, 32.238,  4.986,  0.636
 41760,  1.471,  1.275, 31.844,  4.619,  0.668
 41820,  1.491,  1.499, 33.062,  4.851,  0.626
 41880,  1.477,  1.382, 32.307,  4.891,  0.647
 41940,  1.502,  1.472, 33.495,  5.072,  0.585
 42000,  1.523,  1.482, 33.407,  5.012,  0.497
 42060,  1.511,  1.554, 33.774,  4.888,  0.635
 42120,  1.497,  1.417, 33.748,  4.870,  0.638
 42180,  1.496,  1.362, 32.275,  4.738,  0.585
 42240,  1.443,  1.395, 32.482,  4.659,  0.572
 42300,  1.529,  1.507, 32.594,  4.754,  0.605
 42360,  1.445,  1.491, 33.341,  4.810,  0.632
 42420,  1.492,  1.722, 33.278,  4.821,  0.610
 42480,  1.540,  1.452, 33.256,  4.771,  0.633
 42540,  1.501,  1.407, 32.429,  4.608,  0.593
 42600,  1.479,  1.331, 32.446,  4.678,  0.506
 42660,  1.505,  1.380, 33.452,  4.757,  0.681
 42720,  1.485,  1.317, 33.012,  4.541,  0.610
 42780,  1.409,  1.939, 32.614,  4.536,  0.719
 42840,  1.363,  1.460, 29.647,  4.238,  0.572
 42900,  1.427,  1.404, 30.596,  4.619,  0.529
 42960,  1.526,  1.471, 31.157,  4.712,  0.598
 43020,  1.478,  1.378, 32.194,  4.758,  0.639
 43080,  1.503,  1.360, 32.645,  4.558,  0.640
 43140,  1.501,  1.603, 32.028,  4.670,  0.605
 43200,  1.496,  1.388, 32.122,  4.447,  0.586
 43260,  1.481,  1.252, 32.571,  4.595,  0.577
 43320,  1.468,  1.497, 30.868,  4.430,  0.614
 43380,  1.434,  1.319, 31.858,  4.446,  0.567
 43440,  1.453,  1.603, 32.758,  4.662,  0.589
 43500,  1.491,  1.569, 31.631,  4.340,  0.593
 43560,  1.505,  1.370, 32.332,  4.632,  0.632
 43620,  1.490,  1.502, 32.303,  4.545,  0.572
 43680,  1.492,  1.365, 33.173,  4.553,  0.609
 43740,  1.497,  1.444, 33.051,  4.501,  0.547
 43800,  1.486,  1.460, 33.420,  4.576,  0.667
 43860,  1.480,  1.419, 33.021,  4.469,  0.557
 43920,  1.528,  1.435, 32.660,  4.605,  0.526
 43980,  1.507,  1.574, 33.545,  4.541,  0.619
 44040,  1.478,  1.396, 34.131,  4.654,  0.627
 44100,  1.487,  1.474, 32.869,  4.571,  0.612
 44160,  1.512,  1.454, 33.115,  4.485,  0.617
 44220,  1.517,  1.517, 33.762,  4.708,  0.636
 44280,  1.516,  1.511, 32.998,  4.582,  0.476
 44340,  1.524,  1.263, 34.099,  4.603,  0.596
 44400,  1.520,  1.525, 34.749,  4.605,  0.606
 44460,  1.447,  1.404, 33.995,  4.480,  0.651
 44520,  1.464,  1.502, 32.600,  4.589,  0.576
 44580,  1.534,  1.585, 33.431,  4.523,  0.602
 44640, -9999.000, -9999.000, -9999.000, -9999.000, -9999.000
 44700,  1.392,  1.375, 30.308,  4.140,  0.363
 44760,  1.440,  1.354, 31.081,  4.474,  0.556
 44820,  1.508,  1.290, 31.634,  4.621,  0.476
 44880,  1.493,  1.387, 32.164,  4.690,  0.497
 44940,  1.485,  1.365, 33.307,  4.614,  0.479
 45000,  1.538,  1.437, 33.744,  4.682,  0.580
 45060,  1.479,  1.475, 33.866,  4.522,  0.556
 45120,  1.498,  1.385, 32.953,  4.745,  0.492
 45180,  1.554,  1.556, 34.179,  4.474,  0.512
 45240,  1.515,  1.386, 34.519,  4.702,  0.560
 45300,  1.519,  1.336, 33.020,  4.687,  0.546
 45360,  1.551,  1.384, 33.462,  4.711,  0.560
 45420,  1.567,  1.381, 33.704,  4.631,  0.575
 45480,  1.499,  1.422, 33.400,  4.774,  0.505
 45540,  1.520,  1.334, 34.418,  4.812,  0.457
 45600,  1.564,  1.257, 34.314,  4.633,  0.446
 45660,  1.568,  1.286, 33.585,  4.729,  0.443
 45720,  1.515,  1.201, 32.256,  4.625,  0.432
 45780,  1.554,  1.348, 33.037,  4.613,  0.401
 45840,  1.561,  1.353, 34.736,  4.648,  0.494
 45900,  1.529,  1.334, 33.584,  4.663,  0.452
 45960,  1.575,  1.204, 33.183,  4.932,  0.424
 46020,  1.536,  1.422, 33.505,  4.819,  0.478
 46080,  1.515,  1.274, 33.983,  4.821,  0.432
 46140,  1.549,  1.237, 33.900,  4.818,  0.444
 46200,  1.548,  1.207, 34.133,  4.673,  0.412
 46260,  1.566,  1.220, 33.571,  4.637,  0.419
 46320,  1.585,  1.292, 33.690,  4.822,  0.373
 46380,  1.572,  1.269, 33.353,  4.656,  0.407
 46440,  1.564,  1.251, 34.400,  4.700,  0.462
 46500, -9999.000, -9999.000, -9999.000, -9999.000, -9999.000
 46560,  1.500,  1.205, 31.793,  4.544,  0.284
 46620,  1.599,  1.218, 33.184,  4.700,  0.304
 46680,  1.552,  1.200, 31.916,  4.711,  0.352
 46740,  1.593,  1.063, 33.473,  4.894,  0.372
 46800,  1.603,  1.443, 34.609,  4.935,  0.453
 46860,  1.700,  1.641, 36.920,  5.082,  0.664
 46920,  1.822,  2.181, 39.240,  5.500,  1.021
 46980,  1.806,  1.844, 37.941,  5.362,  0.793
 47040,  1.691,  1.607, 37.792,  5.197,  0.731
 47100,  1.708,  1.611, 37.695,  5.024,  0.682
 47160,  1.668,  1.598, 36.830,  4.917,  0.612
 47220,  1.664,  1.406, 37.073,  4.947,  0.617
 47280,  1.692,  1.554, 34.660,  4.625,  0.476
 47340,  1.652,  1.469, 34.822,  4.685,  0.544
 47400,  1.649,  1.366, 35.104,  4.677,  0.542
 47460,  1.656,  1.638, 34.770,  4.659,  0.502
 47520,  1.696,  1.635, 33.885,  4.728,  0.474
 47580,  1.661,  1.515, 34.089,  4.741,  0.630
 47640,  1.683,  1.516, 33.129,  4.733,  0.554
 47700,  1.674,  1.453, 33.421,  4.677,  0.449
 47760,  1.628,  1.472, 33.169,  4.740,  0.521
 47820,  1.698,  1.449, 33.636,  4.510,  0.473
 47880,  1.672,  1.328, 32.722,  4.739,  0.421
 47940,  1.624,  1.470, 32.149,  4.561,  0.451
 48000,  1.652,  1.413, 31.695,  4.494,  0.506
 48060,  1.662,  1.446, 31.890,  4.716,  0.432
 48120,  1.700,  1.543, 32.543,  4.630,  0.450
 48180,  1.692,  1.478, 31.748,  4.737,  0.419
 48240,  1.693,  1.357, 31.470,  4.555,  0.491
 48300,  1.749,  1.153, 32.497,  4.683,  0.565
 48360, -9999.000, -9999.000, -9999.000, -9999.000, -9999.000
 48420,  1.648,  1.373, 28.475,  4.442,  0.396
 48480,  1.629,  1.349, 29.862,  4.407,  0.427
 48540,  1.664,  1.625, 31.047,  4.460,  0.487
 48600,  1.687,  1.375, 29.855,  4.502,  0.456
 48660,  1.681,  1.284, 30.461,  4.488,  0.492
 48720,  1.662,  1.544, 31.330,  4.504,  0.432
 48780,  1.661,  1.570, 31.711,  4.507,  0.429
 48840,  1.675,  1.696, 32.610,  4.396,  0.513
 48900,  1.719,  1.804, 30.881,  4.484,  0.471
 48960,  1.649,  1.666, 30.612,  4.421,  0.381
 49020,  1.714,  1.499, 31.898,  4.345,  0.446
 49080,  1.702,  1.777, 31.739,  4.412,  0.435
 49140,  1.715,  1.752, 31.536,  4.507,  0.419
 49200,  1.716,  1.734, 30.172,  4.562,  0.384
 49260,  1.706,  1.788, 31.644,  4.581,  0.385
 49320,  1.716,  1.740, 32.574,  4.456,  0.493
 49380,  1.679,  1.712, 30.674,  4.468,  0.445
 49440,  1.751,  1.681, 31.421,  4.447,  0.433
 49500,  1.696,  1.957, 32.017,  4.618,  0.465
 49560,  1.725,  1.971, 31.341,  4.438,  0.413
 49620,  1.741,  1.834, 31.960,  4.635,  0.421
 49680,  1.744,  1.949, 33.792,  4.618,  0.402
 49740,  1.714,  2.071, 33.383,  4.561,  0.448
 49800,  1.727,  2.058, 32.386,  4.380,  0.467
 49860,  1.792,  2.025, 32.571,  4.381,  0.437
 49920,  1.759,  2.114, 32.002,  4.485,  0.438
 49980,  1.741,  2.022, 32.438,  4.481,  0.346
 50040,  1.792,  2.228, 33.329,  4.650,  0.450
 50100,  1.757,  2.442, 33.082,  4.474,  0.416
 50160,  1.791,  2.178, 31.340,  4.347,  0.382
 50220,  1.689,  2.098, 31.861,  4.391,  0.488
 50280,  1.744,  2.397, 32.226,  4.456,  0.475
 50340,  1.776,  2.360, 31.797,  4.389,  0.480
 50400,  1.746,  2.870, 33.081,  4.294,  0.336
 50460,  1.794,  2.748, 32.407,  4.435,  0.381
 50520,  1.773,  2.616, 33.231,  4.399,  0.442
 50580,  1.770,  2.703, 33.261,  4.408,  0.447
 50640,  1.774,  2.734, 32.935,  4.363,  0.475
 50700,  1.789,  2.661, 32.792,  4.337,  0.358
 50760,  1.779,  2.928, 34.255,  4.455,  0.398
 50820,  1.792,  2.884, 33.395,  4.385,  0.431
 50880,  1.818,  3.113, 33.028,  4.496,  0.401
 50940,  1.843,  2.962, 34.791,  4.393,  0.430
 51000,  1.844,  3.289, 35.111,  4.532,  0.432
 51060,  1.838,  3.251, 34.623,  4.585,  0.357
 51120,  1.859,  3.123, 34.290,  4.417,  0.418
 51180,  1.855,  3.236, 34.872,  4.607,  0.357
 51240,  1.814,  3.362, 35.340,  4.450,  0.495
 51300,  1.814,  3.298, 34.244,  4.454,  0.289
 51360,  1.880,  3.349, 34.829,  4.570,  0.363
 51420,  1.821,  3.721, 35.248,  4.449,  0.389
 51480,  1.826,  3.459, 34.337,  4.470,  0.333
 51540,  1.901,  3.713, 35.361,  4.666,  0.342
 51600,  1.846,  4.048, 35.637,  4.563,  0.507
 51660,  1.892,  4.156, 35.041,  4.512,  0.482
 51720,  1.861,  4.187, 34.900,  4.500,  0.510
 51780,  1.842,  4.193, 33.895,  4.479,  0.150
 51840,  1.841,  3.535, 35.114,  4.570,  0.203
 51900,  1.915,  4.147, 35.842,  4.553,  0.460
 51960,  1.888,  4.503, 35.091,  4.607,  0.434
 52020,  2.019,  4.651, 35.306,  4.696,  0.448
 52080,  1.829,  4.444, 31.777,  4.254,  0.091
 52140,  1.894,  4.845, 33.008,  4.496,  0.232
 52200,  1.957,  4.995, 35.086,  4.665,  0.443
 52260,  1.931,  4.781, 35.183,  4.718,  0.293
 52320,  1.958,  5.065, 36.984,  4.554,  0.531
 52380,  1.988,  5.042, 35.877,  4.552,  0.344
 52440,  2.051,  5.526, 36.434,  4.785,  0.446
 52500,  2.012,  5.232, 36.801,  4.767,  0.427
 52560,  1.960,  5.824, 37.722,  4.581,  0.537
 52620,  2.036,  6.054, 36.482,  4.628,  0.444
 52680,  1.998,  6.235, 35.763,  4.613,  0.462
 52740,  2.072,  6.134, 37.443,  4.787,  0.501
 52800,  2.070,  6.253, 38.064,  4.711,  0.551
 52860,  2.098,  6.265, 37.539,  4.932,  0.527
 52920,  2.070,  6.335, 36.531,  4.647,  0.492
 52980,  2.075,  6.423, 37.879,  4.812,  0.601
 53040,  2.063,  6.291, 37.687,  4.652,  0.503
 53100,  2.041,  6.366, 35.902,  4.814,  0.608
 53160,  2.114,  6.343, 37.093,  4.762,  0.533
 53220,  2.129,  6.414, 37.141,  4.819,  0.548
 53280,  2.132,  6.808, 38.012,  4.818,  0.695
 53340,  2.099,  7.356, 37.279,  5.044,  0.632
 53400,  2.158,  7.484, 34.114,  4.721,  0.640
 53460,  2.182,  7.596, 36.226,  4.817,  0.625
 53520,  2.178,  7.949, 37.715,  5.025,  0.685
 53580,  2.215,  8.196, 37.554,  4.871,  0.623
 53640,  2.256,  8.469, 37.692,  4.981,  0.724
 53700,  2.234,  8.656, 38.731,  4.964,  0.817
 53760,  2.201,  9.198, 37.905,  5.031,  0.836
 53820,  2.278,  9.662, 38.839,  5.203,  0.963
 53880,  2.356,  9.951, 39.259,  5.153,  0.965
 53940,  2.229,  9.757, 39.364,  5.129,  0.825
 54000,  2.291, 10.305, 40.087,  5.287,  1.058
 54060,  2.288, 10.121, 40.135,  5.200,  0.944
 54120,  2.363, 10.718, 40.437,  5.069,  0.947
 54180,  2.392, 10.535, 39.694,  4.899,  1.019
 54240, -9999.000, -9999.000, -9999.000, -9999.000, -9999.000
 54300,  2.380, 11.305, 35.975,  4.806,  1.146
 54360,  2.294, 11.068, 38.292,  5.089,  1.008
 54420,  2.416, 11.739, 39.342,  5.155,  0.993
 54480,  2.388, 11.599, 39.220,  5.198,  0.920
 54540,  2.435, 11.879, 40.253,  5.142,  1.105
 54600,  2.462, 12.646, 39.457,  5.300,  0.951
 54660,  2.492, 12.394, 40.653,  5.205,  0.880
 54720,  2.431, 11.668, 41.279,  5.063,  0.739
 54780,  2.523, 12.210, 41.364,  5.216,  0.944
 54840,  2.531, 12.526, 41.027,  5.178,  0.914
 54900,  2.462, 12.295, 42.082,  5.171,  0.819
 54960,  2.565, 13.202, 44.610,  5.290,  0.935
 55020,  2.529, 12.888, 42.449,  5.176,  0.867
 55080,  2.612, 13.211, 42.146,  5.107,  0.892
 55140,  2.621, 13.992, 42.753,  5.134,  0.918
 55200,  2.595, 13.805, 43.324,  5.041,  0.782
 55260,  2.653, 14.482, 42.732,  5.059,  0.723
 55320,  2.609, 14.059, 43.792,  4.903,  0.797
 55380,  2.587, 14.683, 42.622,  4.127,  0.704
 55440,  2.618, 13.906, 42.548,  5.070,  0.662
 55500,  2.512, 13.148, 42.129,  4.769,  0.423
 55560,  2.565, 14.138, 42.684,  4.762,  0.585
 55620,  2.612, 13.969, 43.596,  4.855,  0.544
 55680,  2.623, 13.760, 43.053,  4.827,  0.540
 55740,  2.630, 14.086, 44.010,  4.803,  0.579
 55800,  2.553, 13.414, 41.699,  4.244,  0.384
 55860,  2.624, 13.765, 44.286,  4.841,  0.645
 55920,  2.600, 13.902, 43.851,  4.787,  0.521
 55980,  2.600, 13.411, 43.029,  4.709,  0.427
 56040,  2.590, 13.382, 43.070,  4.691,  0.501
 56100, -9999.000, -9999.000, -9999.000, -9999.000, -9999.000
 56160,  2.591, 12.582, 38.719,  4.367,  0.214
 56220,  2.667, 13.802, 41.467,  4.665,  0.490
 56280,  2.720, 14.366, 43.963,  4.763,  0.523
 56340,  2.742, 14.752, 43.018,  4.614,  0.485
 56400,  2.725, 15.205, 43.021,  4.728,  0.548
 56460,  2.669, 13.859, 42.397,  4.642,  0.471
 56520,  2.659, 13.515, 41.674,  4.570,  0.333
 56580,  2.673, 13.933, 43.135,  4.706,  0.463
 56640,  2.690, 14.945, 45.136,  4.721,  0.455
 56700,  2.675, 15.377, 45.603,  4.593,  0.493
 56760,  2.771, 15.461, 44.328,  4.721,  0.395
 56820,  2.713, 14.693, 43.581,  4.603,  0.059
 56880,  2.803, 16.677, 46.400,  4.775,  0.641
 56940,  2.772, 16.446, 46.325,  4.767,  0.492
 57000,  2.803, 16.918, 48.115,  4.874,  0.566
 57060,  2.782, 16.625, 48.216,  4.686,  0.417
 57120,  2.889, 16.967, 48.122,  4.848,  0.610
 57180,  2.915, 16.731, 48.797,  4.850,  0.583
 57240,  2.811, 16.287, 47.152,  4.924,  0.650
 57300,  2.900, 16.725, 47.870,  5.079,  0.607
 57360,  2.953, 17.872, 50.596,  5.133,  0.704
 57420,  2.930, 17.619, 51.109,  4.989,  0.706
 57480,  2.923, 17.017, 50.712,  5.001,  0.676
 57540,  2.887, 16.290, 50.310,  4.837,  0.658
 57600,  2.853, 16.591, 50.261,  4.737,  0.520
 57660,  2.917, 17.727, 51.178,  4.963,  0.687
 57720,  2.962, 18.155, 52.865,  5.072,  0.673
 57780,  2.940, 18.309, 53.907,  5.010,  0.759
 57840,  2.948, 18.834, 55.181,  5.080,  0.781
 57900,  2.909, 18.829, 53.472,  4.825,  0.652
 57960, -9999.000, -9999.000, -9999.000, -9999.000, -9999.000
 58020,  2.884, 18.366, 50.796,  4.691,  0.720
 58080,  2.968, 19.298, 52.990,  4.922,  0.626
 58140,  3.039, 19.940, 55.417,  5.046,  0.789
 58200,  3.094, 20.792, 55.391,  4.914,  0.769
 58260,  3.084, 20.639, 55.899,  5.066,  0.637
 58320,  3.043, 20.098, 58.260,  4.979,  0.615
 58380,  3.186, 21.471, 59.526,  5.142,  0.723
 58440,  3.169, 21.134, 58.713,  4.885,  0.670
 58500,  3.205, 21.690, 60.330,  4.980,  0.681
 58560,  3.250, 21.698, 59.289,  5.057,  0.742
 58620,  3.260, 22.544, 60.067,  5.031,  0.644
 58680,  3.252, 22.947, 62.262,  4.964,  0.751
 58740,  3.332, 22.909, 63.115,  5.210,  0.743
 58800,  3.306, 22.988, 61.944,  4.975,  0.670
 58860,  3.286, 21.491, 60.700,  4.997,  0.661
 58920,  3.264, 20.416, 62.035,  5.255,  0.555
 58980,  3.217, 20.457, 61.771,  5.145,  0.692
 59040,  3.214, 19.728, 60.830,  5.068,  0.629
 59100,  3.269, 20.515, 62.756,  5.230,  0.619
 59160,  3.320, 21.406, 62.178,  5.198,  0.599
 59220,  3.330, 21.105, 63.192,  5.180,  0.417
 59280,  3.282, 19.797, 64.377,  5.215,  0.601
 59340,  3.295, 20.498, 62.493,  5.166,  0.463
 59400,  3.431, 23.103, 68.469,  5.326,  0.665
 59460,  3.416, 23.364, 68.830,  5.088,  0.607
 59520,  3.505, 23.755, 69.811,  5.277,  0.639
 59580,  3.477, 23.239, 70.950,  5.329,  0.587
 59640,  3.518, 23.948, 71.532,  5.191,  0.592
 59700,  3.599, 24.065, 71.598,  5.154,  0.612
 59760,  3.489, 23.668, 73.485,  5.464,  0.725
 59820,  3.542, 24.455, 70.549,  5.268,  0.554
 59880,  3.518, 22.901, 70.166,  4.988,  0.523
 59940,  3.394, 20.791, 70.203,  5.336,  0.636
 60000,  3.319, 20.771, 71.480,  5.082,  0.530
 60060,  3.372, 20.835, 71.220,  5.247,  0.541
 60120,  3.351, 20.924, 72.483,  5.174,  0.544
 60180,  3.367, 20.210, 72.867,  5.338,  0.592
 60240,  3.424, 20.345, 72.771,  5.156,  0.415
 60300,  3.509, 22.785, 76.214,  5.287,  0.633
 60360,  3.531, 24.442, 78.985,  5.260,  0.614
 60420,  3.597, 24.451, 78.729,  5.210,  0.483
 60480,  3.618, 24.905, 80.269,  5.191,  0.522
 60540,  3.608, 25.928, 80.245,  5.153,  0.596
 60600,  3.653, 25.037, 81.600,  5.477,  0.633
 60660,  3.555, 23.567, 82.521,  5.211,  0.615
 60720,  3.463, 23.195, 80.953,  5.187,  0.671
 60780,  3.411, 21.287, 78.908,  5.144,  0.522
 60840,  3.365, 21.000, 80.027,  5.226,  0.567
 60900,  3.379, 20.896, 78.523,  5.048,  0.491
 60960,  3.304, 19.468, 78.040,  5.025,  0.294
 61020,  3.417, 19.240, 77.419,  5.271,  0.479
 61080,  3.518, 20.913, 77.535,  5.274,  0.496
 61140,  3.540, 22.458, 82.109,  5.318,  0.558
 61200,  3.649, 23.131, 84.249,  5.310,  0.611
 61260,  3.613, 22.367, 83.312,  5.045,  0.485
 61320,  3.648, 23.093, 82.680,  5.398,  0.563
 61380,  3.733, 24.082, 84.604,  5.220,  0.558
 61440,  3.594, 21.994, 85.689,  5.119,  0.439
 61500,  3.682, 22.249, 85.660,  5.090,  0.334
 61560,  3.885, 24.737, 88.536,  5.237,  0.574
 61620, -9999.000, -9999.000, -9999.000, -9999.000, -9999.000
 61680,  3.765, 25.945, 82.209,  5.416,  0.379
 61740,  3.689, 24.587, 87.187,  4.649,  0.171
 61800,  3.979, 25.770, 90.968,  5.460,  0.627
 61860,  3.930, 24.511, 91.826,  5.416,  0.583
 61920,  3.909, 23.956, 91.085,  5.517,  0.727
 61980,  4.005, 25.444, 91.010,  5.458,  0.559
 62040,  4.155, 27.298, 93.490,  5.298,  0.552
 62100,  4.337, 29.461, 99.290,  5.707,  0.720
 62160,  4.482, 31.422, 103.136,  5.675,  0.765
 62220,  4.537, 31.572, 108.604,  5.702,  0.726
 62280,  4.531, 31.362, 108.064,  5.510,  0.718
 62340,  4.330, 28.682, 104.376,  5.263,  0.728
 62400,  4.290, 28.422, 105.014,  5.425,  0.668
 62460,  4.427, 29.794, 108.728,  5.384,  0.679
 62520,  4.427, 29.788, 107.126,  5.259,  0.623
 62580,  4.455, 28.890, 109.161,  5.579,  0.575
 62640,  4.495, 29.163, 108.144,  5.684,  0.699
 62700,  4.656, 32.056, 110.885,  5.425,  0.534
 62760,  4.737, 32.307, 115.917,  5.327,  0.809
 62820,  4.532, 29.151, 116.318,  5.409,  0.392
 62880,  4.623, 29.388, 114.230,  5.691,  0.687
 62940,  4.545, 29.557, 112.876,  5.558,  0.637
 63000,  4.774, 31.312, 119.317,  5.518,  0.745
 63060,  4.947, 31.958, 123.342,  5.656,  0.758
 63120,  4.984, 33.459, 122.503,  5.503,  0.717
 63180,  5.108, 34.713, 127.469,  5.467,  0.788
 63240,  5.016, 33.820, 126.126,  5.590,  0.730
 63300,  5.131, 34.056, 129.375,  5.659,  0.732
 63360,  5.208, 35.128, 127.899,  5.790,  0.813
 63420,  5.359, 36.462, 134.944,  5.676,  0.767
 63480, -9999.000, -9999.000, -9999.000, -9999.000, -9999.000
 63540,  5.222, 37.073, 128.430,  5.717,  0.621
 63600,  5.316, 35.936, 131.719,  5.812,  0.712
 63660,  5.144, 33.379, 129.211,  5.487,  0.463
 63720,  5.313, 34.563, 130.366,  5.604,  0.769
 63780,  5.407, 35.101, 132.251,  5.678,  0.607
 63840,  5.647, 37.638, 138.402,  5.595,  0.746
 63900,  5.635, 38.115, 141.852,  5.547,  0.708
 63960,  5.498, 36.827, 140.868,  5.819,  0.842
 64020,  5.427, 36.001, 140.296,  5.733,  0.759
 64080,  5.312, 34.953, 140.198,  5.574,  0.703
 64140,  5.421, 34.847, 142.806,  5.482,  0.441
 64200,  5.515, 35.495, 145.533,  5.143,  0.333
 64260,  5.873, 39.378, 152.951,  5.965,  0.736
 64320,  5.897, 39.833, 156.430,  6.095,  0.487
 64380,  6.090, 41.816, 160.733,  5.980,  0.451
 64440,  6.184, 44.666, 162.605,  5.933,  0.682
 64500,  6.347, 45.998, 170.559,  5.981,  0.923
 64560,  6.435, 46.455, 176.573,  6.154,  0.833
 64620,  6.482, 45.138, 173.021,  6.226,  0.877
 64680,  6.408, 45.011, 172.404,  6.094,  0.713
 64740,  6.362, 44.212, 175.123,  5.983,  0.651
 64800,  6.313, 45.258, 176.351,  5.322,  0.390
 64860,  6.663, 47.142, 182.882,  5.915,  0.703
 64920,  6.698, 48.508, 185.739,  5.955,  0.958
 64980,  6.830, 49.848, 186.823,  6.275,  0.950
 65040,  6.972, 49.562, 187.455,  6.051,  0.801
 65100,  6.939, 48.521, 180.877,  5.775,  0.762
 65160,  7.104, 49.981, 179.120,  6.015,  0.837
 65220,  7.278, 50.637, 183.456,  6.137,  0.882
 65280,  7.375, 51.089, 186.088,  6.258,  0.782
 65340, -9999.000, -9999.000, -9999.000, -9999.000, -9999.000
 65400,  7.474, 48.804, 159.051,  5.781,  0.621
 65460,  7.652, 52.175, 169.028,  6.245,  0.832
 65520,  7.586, 52.083, 177.973,  6.247,  0.648
 65580,  7.683, 52.499, 186.104,  6.344,  0.757
 65640,  7.648, 52.867, 191.217,  6.344,  0.844
 65700,  7.756, 53.380, 190.963,  6.293,  0.751
 65760,  7.877, 53.022, 194.528,  6.182,  0.797
 65820,  7.802, 53.791, 194.525,  6.370,  0.806
 65880,  7.767, 53.160, 192.717,  6.195,  0.826
 65940,  7.775, 53.111, 189.725,  6.296,  0.781
 66000,  8.039, 56.490, 191.498,  6.460,  0.874
 66060,  8.111, 55.311, 198.951,  6.436,  0.967
 66120,  8.169, 57.530, 201.605,  6.594,  0.919
 66180,  8.081, 56.347, 204.114,  6.327,  0.902
 66240,  8.174, 55.979, 204.819,  6.525,  0.904
 66300,  8.398, 56.735, 209.185,  6.738,  0.830
 66360,  8.401, 56.093, 208.675,  6.492,  0.754
 66420,  8.216, 54.410, 206.248,  6.739,  0.904
 66480,  8.201, 54.552, 200.192,  6.665,  0.853
 66540,  8.260, 55.391, 205.253,  6.433,  0.806
 66600,  8.334, 55.215, 203.794,  6.526,  0.798
 66660,  8.464, 56.049, 206.405,  6.542,  0.999
 66720,  8.902, 59.154, 218.547,  7.040,  0.855
 66780,  8.626, 58.030, 214.803,  6.788,  0.896
 66840,  8.656, 57.648, 213.821,  6.640,  0.906
 66900,  8.900, 60.119, 215.942,  6.709,  0.967
 66960,  8.940, 58.857, 217.392,  6.652,  0.839
 67020,  9.016, 60.132, 221.610,  6.799,  1.000
 67080,  9.049, 60.719, 223.073,  6.864,  0.950
 67140,  8.845, 58.602, 221.098,  6.977,  0.997
 67200, -9999.000, -9999.000, -9999.000, -9999.000, -9999.000
 67260,  8.860, 58.504, 201.333,  6.773,  0.807
 67320,  8.962, 59.607, 209.047,  6.969,  0.993
 67380,  8.898, 56.830, 216.110,  6.883,  0.885
 67440,  8.293, 52.136, 209.467,  6.679,  0.796
 67500,  8.210, 49.862, 205.333,  6.598,  0.766
 67560,  8.316, 50.874, 208.245,  6.773,  0.707
 67620,  8.680, 53.938, 217.839,  6.766,  0.833
 67680,  8.961, 55.926, 220.336,  6.550,  0.688
 67740,  8.738, 55.275, 219.513,  6.542,  0.722
 67800,  8.492, 52.435, 221.196,  6.540,  0.748
 67860,  8.426, 51.720, 219.731,  6.715,  0.849
 67920,  8.520, 53.479, 228.057,  6.507,  0.736
 67980,  8.397, 52.403, 225.638,  6.700,  0.774
 68040,  8.488, 54.821, 232.003,  6.638,  0.826
 68100,  8.394, 53.427, 232.188,  6.713,  0.735
 68160,  8.392, 54.247, 230.751,  6.746,  0.759
 68220,  8.372, 54.287, 236.282,  6.494,  0.593
 68280,  8.491, 54.145, 243.343,  6.765,  0.600
 68340,  8.456, 55.019, 245.538,  6.693,  0.443
 68400,  8.410, 55.123, 238.221,  6.473,  0.647
 68460,  8.249, 51.635, 237.707,  6.530,  0.430
 68520,  8.246, 52.774, 237.747,  6.550,  0.729
 68580,  8.498, 55.591, 242.283,  6.617,  0.680
 68640,  8.709, 56.329, 251.074,  6.655,  0.782
 68700,  8.582, 55.723, 248.144,  6.626,  0.681
 68760,  8.694, 57.173, 252.188,  6.535,  0.630
 68820,  8.840, 57.838, 250.303,  6.828,  0.691
 68880,  7.714, 47.419, 217.462,  6.447,  0.655
 68940,  7.862, 46.248, 213.657,  6.576,  0.582
 69000,  7.581, 40.929, 202.424,  6.815,  0.104
 69060, -9999.000, -9999.000, -9999.000, -9999.000, -9999.000
 69120,  7.349, 40.526, 169.234,  6.164,  0.373
 69180,  7.140, 38.954, 168.938,  6.324,  0.522
 69240,  7.002, 38.136, 172.412,  6.281,  0.504
 69300,  7.087, 40.041, 183.010,  6.404,  0.235
 69360,  7.275, 41.247, 196.157,  6.155,  0.414
 69420,  6.754, 36.423, 179.935,  6.015,  0.492
 69480,  7.071, 39.412, 187.646,  6.181,  0.557
 69540,  7.490, 44.859, 200.075,  5.952,  0.740
 69600,  7.713, 46.103, 219.980,  6.225,  0.764
 69660,  7.529, 43.982, 213.670,  6.017,  0.647
 69720,  6.873, 39.911, 197.795,  5.867,  0.643
 69780,  6.237, 34.528, 184.914,  5.754,  0.581
 69840,  6.250, 35.064, 184.466,  5.943,  0.559
 69900,  6.822, 39.750, 196.047,  5.801,  0.525
 69960,  7.550, 46.562, 222.425,  6.118,  0.669
 70020,  7.925, 48.086, 243.340,  6.116,  0.755
 70080,  8.228, 51.447, 257.293,  6.265,  0.788
 70140,  7.896, 49.168, 248.847,  6.524,  0.813
 70200,  7.807, 50.390, 259.302,  6.440,  0.678
 70260,  7.692, 49.162, 268.111,  6.142,  0.714
 70320,  7.737, 49.283, 267.782,  6.463,  0.599
 70380,  8.298, 57.924, 295.605,  6.267,  0.713
 70440,  8.596, 60.381, 297.409,  6.328,  0.801
 70500,  8.277, 57.238, 306.764,  6.251,  0.908
 70560,  7.874, 53.076, 301.812,  6.061,  0.778
 70620,  7.645, 50.337, 292.586,  5.821,  0.740
 70680,  7.380, 47.646, 290.439,  5.944,  0.812
 70740,  7.162, 45.956, 278.205,  5.877,  0.775
 70800,  7.095, 44.946, 283.037,  5.791,  0.738
 70860,  7.260, 47.281, 283.409,  5.998,  0.807
 70920,  6.874, 49.177, 259.717,  6.104,  0.618
 70980,  7.282, 47.742, 262.134,  6.133,  0.902
 71040,  7.199, 46.866, 261.376,  5.923,  0.800
 71100,  6.906, 44.345, 286.880,  6.100,  0.790
 71160,  7.156, 48.264, 301.188,  6.043,  0.797
 71220,  7.211, 49.109, 299.489,  5.916,  0.801
 71280,  7.141, 48.966, 295.870,  6.212,  0.755
 71340,  7.161, 48.388, 300.287,  5.806,  0.663
 71400,  7.392, 51.513, 307.503,  5.954,  0.940
 71460,  7.644, 52.294, 321.593,  5.960,  0.806
 71520,  7.482, 53.541, 315.564,  6.015,  0.685
 71580,  7.253, 49.619, 308.718,  5.686,  0.499
 71640,  7.306, 48.460, 306.878,  5.738,  0.579
 71700,  7.556, 46.533, 329.472,  6.067,  0.771
 71760,  8.387, 49.054, 358.072,  6.340,  0.780
 71820,  8.396, 49.701, 368.095,  6.337,  0.796
 71880,  8.409, 50.106, 369.266,  6.528,  0.839
 71940,  8.458, 49.431, 367.788,  6.257,  0.704
 72000,  8.665, 49.792, 368.827,  6.369,  0.770
 72060, 10.132, 54.504, 388.257,  6.862,  0.674
 72120, 10.661, 56.088, 408.671,  7.220,  0.839
 72180, 10.677, 55.169, 407.613,  7.287,  0.777
 72240, 10.255, 53.044, 401.453,  7.104,  0.720
 72300,  9.001, 50.433, 391.948,  6.793,  0.693
 72360,  7.787, 47.324, 371.743,  6.208,  0.703
 72420,  7.432, 47.165, 372.481,  6.369,  0.737
 72480,  7.383, 45.485, 363.607,  6.131,  0.714
 72540,  7.144, 44.111, 352.865,  6.205,  0.624
 72600,  6.842, 41.298, 341.086,  6.185,  0.530
 72660,  7.118, 42.817, 346.885,  5.927,  0.588
 72720,  7.200, 41.939, 356.434,  6.443,  0.625
 72780, -9999.000, -9999.000, -9999.000, -9999.000, -9999.000
 72840,  7.567, 44.401, 306.583,  6.206,  0.415
 72900,  7.476, 44.014, 315.521,  6.326,  0.456
 72960,  7.534, 44.302, 335.319,  6.336,  0.478
 73020,  8.032, 46.256, 351.851,  6.484,  0.669
 73080,  7.865, 45.689, 356.344,  6.294,  0.530
 73140,  6.909, 41.756, 335.750,  6.201,  0.398
 73200,  7.308, 42.992, 328.801,  6.067,  0.564
 73260,  9.245, 50.928, 361.506,  6.647,  0.643
 73320, 10.084, 55.733, 386.685,  6.538,  0.634
 73380, 10.053, 55.977, 405.907,  6.781,  0.550
 73440, 10.715, 58.697, 418.158,  7.357,  0.687
 73500, 11.924, 62.307, 439.773,  7.142,  0.503
 73560, 11.449, 58.843, 444.191,  7.023,  0.275
 73620, 11.812, 59.347, 450.305,  7.285,  0.369
 73680, 12.134, 59.032, 463.681,  7.503,  0.176
 73740, 12.292, 58.386, 463.299,  7.199,  0.293
 73800, 12.484, 57.841, 466.602,  7.502,  0.262
 73860, 12.888, 54.775, 452.116,  7.559,  0.160
 73920, 16.023, 49.581, 369.537,  8.409,  0.538
 73980, 17.066, 45.516, 337.695,  9.115,  0.664
 74040, 17.337, 46.106, 332.204,  9.007,  0.778
 74100, 17.345, 46.453, 335.076,  9.207,  0.694
 74160, 17.232, 46.459, 334.649,  9.180,  0.659
 74220, 17.160, 46.729, 338.991,  9.350,  0.633
 74280, 17.573, 44.522, 322.179,  9.313,  0.582
 74340, 17.750, 41.895, 310.433,  9.175,  0.517
 74400, 17.299, 42.183, 306.962,  9.527,  0.654
 74460, 16.674, 42.798, 317.044,  8.982,  0.664
 74520, 16.634, 43.287, 318.987,  8.616,  0.675
 74580, 16.710, 44.348, 321.811,  9.299,  0.763
 74640, 16.328, 43.375, 294.316,  8.875,  0.545
 74700, 16.256, 44.601, 323.414,  9.111,  0.696
 74760, 16.326, 43.391, 335.223,  9.293,  0.720
 74820, 15.535, 42.399, 335.569,  8.571,  0.687
 74880, 15.268, 41.100, 339.493,  8.778,  0.612
 74940, 15.204, 40.164, 326.073,  8.731,  0.619
 75000, 15.921, 36.176, 302.866,  8.975,  0.509
 75060, 16.654, 32.356, 270.508,  9.281,  0.628
 75120, 17.139, 30.652, 238.914,  9.634,  0.631
 75180, 17.319, 31.511, 244.536,  9.735,  0.694
 75240, 17.376, 29.246, 225.581,  9.733,  0.664
 75300, 18.357, 27.834, 218.486,  9.954,  0.579
 75360, 18.829, 27.446, 202.158, 10.062,  0.701
 75420, 17.816, 31.388, 225.806, 10.107,  0.770
 75480, 16.506, 34.787, 256.890,  9.426,  0.637
 75540, 15.782, 38.181, 289.655,  9.521,  0.744
 75600, 15.015, 36.492, 308.693,  9.317,  0.731
 75660, 14.809, 33.778, 288.879,  8.892,  0.513
 75720, 15.276, 34.200, 280.852,  8.860,  0.621
 75780, 15.542, 33.360, 268.911,  9.279,  0.733
 75840, 15.259, 31.316, 251.074,  8.885,  0.690
 75900, 14.982, 30.766, 244.589,  9.327,  0.788
 75960, 14.951, 29.041, 233.800,  8.727,  0.680
 76020, 14.591, 30.486, 244.446,  8.802,  0.610
 76080, 14.601, 30.813, 249.707,  8.901,  0.753
 76140, 14.624, 31.825, 255.605,  8.959,  0.800
 76200, 14.702, 32.982, 271.674,  8.960,  0.813
 76260, 14.904, 32.179, 270.516,  8.985,  0.781
 76320, 14.501, 32.476, 276.827,  8.759,  0.734
 76380, 14.640, 32.410, 281.289,  8.872,  0.806
 76440, -9999.000, -9999.000, -9999.000, -9999.000, -9999.000
 76500, 14.042, 28.165, 210.035,  8.793,  0.624
 76560, 14.594, 28.458, 205.971,  9.111,  0.710
 76620, 14.180, 27.619, 218.323,  9.114,  0.701
 76680, 13.832, 28.347, 233.280,  8.902,  0.733
 76740, 13.686, 27.702, 238.696,  8.767,  0.786
 76800, 13.555, 28.836, 240.445,  8.796,  0.741
 76860, 13.713, 29.207, 251.797,  8.688,  0.789
 76920, 13.474, 29.221, 259.738,  8.305,  0.792
 76980, 13.102, 30.005, 271.941,  8.386,  0.729
 77040, 13.487, 29.581, 273.041,  8.257,  0.610
 77100, 13.619, 29.522, 265.046,  8.409,  0.751
 77160, 13.720, 28.903, 261.246,  8.448,  0.622
 77220, 13.899, 29.323, 268.029,  8.842,  0.659
 77280, 13.862, 29.778, 272.321,  8.709,  0.671
 77340, 14.168, 27.090, 253.787,  8.867,  0.516
 77400, 14.081, 26.532, 244.017,  9.071,  0.628
 77460, 13.995, 25.825, 235.654,  8.895,  0.615
 77520, 13.882, 25.775, 228.663,  8.870,  0.599
 77580, 13.674, 25.259, 224.393,  8.967,  0.597
 77640, 13.014, 22.530, 205.911,  8.524,  0.581
 77700, 12.654, 22.469, 201.453,  8.655,  0.506
 77760, 12.456, 21.784, 206.150,  8.187,  0.524
 77820, 12.350, 22.294, 200.419,  8.091,  0.582
 77880, 12.446, 21.777, 200.848,  8.290,  0.550
 77940, 12.315, 22.765, 196.920,  8.189,  0.600
 78000, 11.966, 23.448, 196.359,  8.242,  0.628
 78060, 11.846, 23.387, 201.472,  7.873,  0.582
 78120, 12.164, 26.175, 212.666,  7.836,  0.481
 78180, 12.909, 27.807, 234.501,  8.204,  0.493
 78240, 12.773, 27.205, 244.922,  7.603,  0.450
 78300, 12.506, 26.632, 240.410,  8.389,  0.655
 78360, 11.665, 24.327, 196.934,  7.487,  0.514
 78420, 12.037, 25.730, 216.359,  7.897,  0.551
 78480, 11.083, 22.181, 212.330,  7.179,  0.488
 78540, 11.010, 21.639, 213.098,  7.286,  0.518
 78600, 11.271, 21.716, 219.081,  7.490,  0.508
 78660, 11.321, 22.833, 218.268,  7.401,  0.577
 78720, 11.264, 23.238, 229.778,  7.484,  0.608
 78780, 11.318, 22.498, 227.067,  7.528,  0.582
 78840, 11.055, 21.320, 230.291,  7.449,  0.542
 78900, 10.970, 21.200, 228.568,  7.423,  0.502
 78960, 10.803, 22.339, 232.506,  7.448,  0.630
 79020, 11.203, 22.014, 222.892,  7.664,  0.495
 79080, 10.887, 21.095, 212.220,  7.464,  0.480
 79140,  9.583, 19.949, 218.814,  7.174,  0.697
 79200,  9.477, 20.268, 217.279,  7.181,  0.525
 79260,  9.280, 19.438, 208.805,  7.107,  0.525
 79320,  8.668, 18.027, 206.426,  6.888,  0.441
 79380,  8.746, 18.615, 205.734,  6.993,  0.531
 79440,  8.799, 18.159, 204.225,  6.775,  0.504
 79500,  8.759, 18.208, 203.868,  6.802,  0.592
 79560,  8.402, 17.442, 198.101,  6.896,  0.588
 79620,  8.113, 17.041, 196.395,  6.768,  0.460
 79680,  8.273, 17.380, 185.690,  6.479,  0.498
 79740,  8.074, 16.845, 182.803,  6.454,  0.430
 79800,  7.789, 16.714, 181.686,  6.482,  0.445
 79860,  7.588, 16.941, 174.067,  6.519,  0.489
 79920,  7.258, 16.067, 182.514,  6.379,  0.451
 79980,  7.167, 15.868, 185.169,  6.268,  0.446
 80040,  6.873, 15.294, 185.337,  6.256,  0.462
 80100,  7.086, 15.125, 181.382,  6.262,  0.469
 80160, -9999.000, -9999.000, -9999.000, -9999.000, -9999.000
 80220,  5.984, 12.722, 133.593,  6.180,  0.326
 80280,  6.220, 12.973, 145.027,  6.155,  0.385
 80340,  6.322, 13.901, 153.693,  6.398,  0.382
 80400,  6.369, 14.308, 159.308,  6.431,  0.363
 80460,  6.687, 15.234, 166.053,  6.185,  0.495
 80520,  7.165, 16.365, 190.734,  6.248,  0.455
 80580,  7.442, 17.024, 202.352,  6.532,  0.291
 80640,  7.400, 16.775, 206.914,  6.533,  0.475
 80700,  7.479, 17.248, 214.190,  6.319,  0.355
 80760,  7.677, 19.246, 233.632,  6.328,  0.379
 80820,  7.690, 25.478, 310.474,  6.444,  0.474
 80880,  7.735, 23.731, 308.110,  6.534,  0.447
 80940,  7.402, 18.537, 259.345,  6.333,  0.484
 81000,  7.234, 17.621, 243.089,  6.087,  0.546
 81060,  7.228, 17.590, 232.101,  6.221,  0.453
 81120,  7.071, 16.904, 224.922,  6.338,  0.437
 81180,  7.066, 15.962, 211.952,  6.184,  0.439
 81240,  7.279, 17.154, 214.409,  6.165,  0.506
 81300,  7.387, 16.731, 209.912,  6.173,  0.494
 81360,  6.765, 14.470, 192.096,  6.025,  0.371
 81420,  5.454, 11.591, 154.340,  5.862,  0.361
 81480,  4.782,  9.635, 120.826,  5.438,  0.288
 81540,  4.758,  9.576, 113.642,  5.432,  0.361
 81600,  4.754,  9.828, 111.325,  5.444,  0.304
 81660,  4.944,  9.971, 113.697,  5.414,  0.283
 81720,  5.288, 10.782, 123.080,  5.485,  0.297
 81780,  5.456, 11.321, 127.790,  5.608,  0.319
 81840,  6.057, 14.911, 157.689,  5.578,  0.454
 81900,  6.139, 14.953, 166.019,  5.704,  0.367
 81960,  6.088, 14.080, 159.851,  5.742,  0.393
 82020, -9999.000, -9999.000, -9999.000, -9999.000, -9999.000
 82080,  5.302, 10.900, 115.574,  6.044,  0.306
 82140,  5.142, 11.021, 117.236,  5.830,  0.306
 82200,  4.980, 10.402, 122.498,  5.625,  0.237
 82260,  4.972,  9.954, 126.585,  5.672,  0.308
 82320,  4.942, 10.148, 124.635,  5.564,  0.273
 82380,  4.841, 10.280, 128.465,  5.510,  0.268
 82440,  5.022, 11.119, 132.439,  5.734,  0.339
 82500,  5.220, 10.800, 133.339,  5.679,  0.348
 82560,  5.269, 11.261, 131.203,  5.566,  0.336
 82620,  5.222, 11.266, 129.194,  5.515,  0.349
 82680,  5.212, 11.394, 128.618,  5.577,  0.300
 82740,  5.226, 11.151, 132.329,  5.713,  0.293
 82800,  5.121, 10.839, 132.205,  5.719,  0.368
 82860,  5.102, 10.718, 133.132,  5.645,  0.323
 82920,  5.067, 10.508, 130.838,  5.430,  0.355
 82980,  4.998, 10.343, 128.365,  5.624,  0.347
 83040,  4.843, 10.243, 128.355,  5.623,  0.420
 83100,  4.934,  9.989, 128.778,  5.208,  0.346
 83160,  5.186, 10.568, 131.296,  5.802,  0.271
 83220,  5.048,  9.519, 126.453,  5.668,  0.288
 83280,  4.837,  9.540, 120.179,  5.863,  0.315
 83340,  4.691,  9.314, 113.049,  5.452,  0.252
 83400,  4.605,  9.098, 110.280,  5.409,  0.314
 83460,  4.818, 10.260, 113.622,  5.628,  0.272
 83520,  4.747,  9.560, 111.488,  5.557,  0.273
 83580,  4.816,  9.683, 113.144,  5.895,  0.298
 83640,  5.011, 10.706, 124.125,  5.589,  0.245
 83700,  5.449, 12.046, 148.883,  5.868,  0.371
 83760,  5.256, 11.920, 142.477,  5.594,  0.297
 83820,  5.026, 11.642, 137.077,  5.475,  0.292
 83880, -9999.000, -9999.000, -9999.000, -9999.000, -9999.000
 83940,  4.070,  7.831, 75.403,  5.482,  0.235
 84000,  4.019,  8.042, 74.140,  5.556,  0.196
 84060,  3.893,  7.242, 70.124,  5.517,  0.232
 84120,  4.316,  8.037, 82.848,  5.421,  0.235
 84180,  4.090,  7.680, 80.072,  5.664,  0.236
 84240,  3.839,  7.046, 70.076,  5.415,  0.223
 84300,  3.932,  7.142, 71.016,  5.477,  0.208
 84360,  4.050,  7.647, 68.902,  5.416,  0.293
 84420,  4.285,  9.176, 72.137,  5.428,  0.303
 84480,  4.536,  9.605, 73.975,  5.642,  0.227
 84540,  4.671,  9.883, 74.901,  5.579,  0.268
 84600,  4.654, 10.651, 76.575,  5.665,  0.284
 84660,  4.909, 10.674, 79.812,  5.610,  0.309
 84720,  5.233, 10.847, 105.855,  5.887,  0.375
 84780,  5.413, 11.261, 116.850,  5.739,  0.423
 84840,  5.745, 11.968, 130.868,  5.997,  0.346
 84900,  6.015, 12.237, 143.647,  5.847,  0.339
 84960,  6.041, 12.764, 149.567,  5.902,  0.446
 85020,  6.099, 12.621, 152.712,  5.713,  0.366
 85080,  6.166, 12.852, 154.257,  5.518,  0.373
 85140,  6.121, 12.789, 157.120,  5.705,  0.438
 85200,  6.372, 13.468, 163.034,  5.681,  0.456
 85260,  6.500, 13.700, 172.575,  6.027,  0.439
 85320,  6.647, 15.079, 188.341,  6.073,  0.516
 85380,  6.548, 14.604, 181.328,  5.690,  0.443
 85440,  6.580, 14.193, 177.062,  5.848,  0.513
 85500,  6.748, 13.300, 170.970,  5.972,  0.427
 85560,  7.026, 14.868, 184.426,  6.009,  0.422
 85620,  7.074, 14.725, 188.588,  5.929,  0.333
 85680,  7.143, 13.527, 185.445,  6.226,  0.204
 85740, -9999.000, -9999.000, -9999.000, -9999.000, -9999.000
 85800,  7.326, 15.221, 168.731,  6.225,  0.334
 85860,  7.360, 14.828, 175.060,  6.063,  0.390
 85920,  7.529, 15.717, 196.111,  6.499,  0.346
 85980,  7.784, 16.400, 208.391,  6.328,  0.454
 86040,  7.809, 17.300, 216.811,  6.066,  0.428
 86100,  7.870, 17.646, 219.109,  6.186,  0.491
 86160,  7.908, 17.770, 227.848,  6.210,  0.420
 86220,  8.131, 18.718, 232.818,  6.276,  0.564
 86280,  8.110, 18.654, 239.557,  6.310,  0.479
 86340,  7.939, 17.462, 244.801,  5.793,  0.255
