34, 1001
Carrie Womack
NOAA Chemical Sciences Laboratory
2B Tech O3 UV Analyzer
USOS
1, 1
2024, 07, 21, 2024, 12, 21
60
Time_Start, seconds_past_midnight, Seconds from midnight UTC
1
1
-9999
O3_ppb, ppb, Ozone from 2B Tech UV Analyzer
1
SPECIAL COMMENTS:
18
PI_CONTACT_INFO: Address: 325 Broadway R/CSL7, Boulder, CO, 80305
PLATFORM: CSL Mobile Lab
LOCATION: Salt Lake City, UT
ASSOCIATED_DATA: N/A
INSTRUMENT_INFO: N/A
DATA_INFO: Units:
UNCERTAINTY: N/A
ULOD_FLAG: -7777
ULOD_VALUE: N/A
LLOD_FLAG: -8888
LLOD_VALUE: N/A
DM_CONTACT_INFO: Data Manager: Nate Howard
PROJECT_INFO: 
STIPULATIONS_ON_USE: Use of these data require prior ok from PI.
OTHER_COMMENTS: N/A
REVISION: R0
R0: Final data. RA: Preliminary Data.  For in-field use only.
Time_Start, O3_ppb
0.0,63.3
60.0,62.6
120.0,62.9
180.0,63.3
240.0,62.7
300.0,64.9
360.0,67.5
420.0,69.1
480.0,68.3
540.0,68.3
600.0,68.8
660.0,67.8
720.0,67.8
780.0,67.8
840.0,67.4
900.0,67.0
960.0,68.1
1020.0,67.4
1080.0,62.8
1140.0,57.4
1200.0,56.6
1260.0,55.1
1320.0,55.4
1380.0,54.5
1440.0,55.3
1500.0,54.5
1560.0,54.1
1620.0,54.4
1680.0,54.4
1740.0,54.0
1800.0,54.1
1860.0,54.7
1920.0,55.0
1980.0,55.6
2040.0,54.8
2100.0,54.4
2160.0,54.4
2220.0,54.0
2280.0,54.8
2340.0,56.2
2400.0,55.7
2460.0,55.2
2520.0,55.4
2580.0,55.5
2640.0,54.4
2700.0,55.3
2760.0,54.9
2820.0,55.8
2880.0,55.0
2940.0,54.2
3000.0,55.3
3060.0,54.2
3120.0,52.1
3180.0,51.6
3240.0,52.6
3300.0,53.3
3360.0,55.1
3420.0,55.0
3480.0,52.0
3540.0,52.4
3600.0,53.9
3660.0,54.8
3720.0,53.5
3780.0,53.4
3840.0,50.3
3900.0,51.0
3960.0,52.2
4020.0,51.2
4080.0,51.2
4140.0,52.4
4200.0,53.4
4260.0,52.7
4320.0,52.2
4380.0,52.3
4440.0,52.4
4500.0,53.5
4560.0,53.4
4620.0,53.4
4680.0,51.2
4740.0,51.7
4800.0,51.7
4860.0,51.0
4920.0,51.1
4980.0,49.7
5040.0,51.2
5100.0,52.0
5160.0,51.4
5220.0,51.7
5280.0,51.9
5340.0,51.9
5400.0,50.9
5460.0,49.5
5520.0,51.6
5580.0,51.2
5640.0,50.4
5700.0,51.6
5760.0,52.7
5820.0,53.0
5880.0,52.6
5940.0,53.5
6000.0,52.6
6060.0,52.8
6120.0,52.5
6180.0,52.6
6240.0,50.8
6300.0,51.4
6360.0,52.0
6420.0,51.2
6480.0,51.4
6540.0,51.8
6600.0,51.7
6660.0,50.7
6720.0,51.1
6780.0,51.0
6840.0,50.6
6900.0,49.6
6960.0,49.5
7020.0,51.0
7080.0,49.9
7140.0,49.9
7200.0,50.0
7260.0,49.7
7320.0,49.3
7380.0,50.0
7440.0,49.1
7500.0,50.3
7560.0,50.1
7620.0,49.7
7680.0,49.4
7740.0,49.6
7800.0,50.0
7860.0,50.9
7920.0,50.2
7980.0,49.5
8040.0,50.3
8100.0,49.8
8160.0,49.7
8220.0,50.6
8280.0,49.8
8340.0,49.1
8400.0,49.4
8460.0,49.8
8520.0,48.7
8580.0,50.6
8640.0,49.1
8700.0,49.2
8760.0,49.3
8820.0,50.4
8880.0,49.0
8940.0,48.5
9000.0,48.5
9060.0,50.1
9120.0,50.4
9180.0,49.4
9240.0,49.5
9300.0,50.5
9360.0,49.5
9420.0,49.9
9480.0,48.7
9540.0,49.0
9600.0,49.6
9660.0,49.7
9720.0,50.0
9780.0,51.1
9840.0,49.8
9900.0,50.0
9960.0,50.8
10020.0,50.7
10080.0,49.6
10140.0,50.8
10200.0,51.4
10260.0,50.6
10320.0,51.0
10380.0,50.8
10440.0,50.6
10500.0,50.4
10560.0,51.4
10620.0,50.8
10680.0,51.3
10740.0,51.6
10800.0,50.9
10860.0,51.5
10920.0,50.7
10980.0,50.0
11040.0,51.0
11100.0,51.4
11160.0,50.8
11220.0,50.1
11280.0,49.4
11340.0,50.7
11400.0,50.6
11460.0,51.0
11520.0,50.9
11580.0,51.4
11640.0,49.9
11700.0,51.4
11760.0,51.2
11820.0,50.6
11880.0,51.5
11940.0,50.6
12000.0,51.4
12060.0,51.1
12120.0,50.9
12180.0,51.3
12240.0,51.4
12300.0,51.2
12360.0,51.8
12420.0,51.3
12480.0,51.8
12540.0,51.5
12600.0,50.9
12660.0,51.9
12720.0,51.1
12780.0,51.2
12840.0,50.2
12900.0,51.0
12960.0,51.2
13020.0,52.4
13080.0,51.3
13140.0,51.6
13200.0,50.9
13260.0,50.4
13320.0,50.3
13380.0,51.4
13440.0,50.7
13500.0,51.1
13560.0,51.0
13620.0,51.5
13680.0,51.5
13740.0,51.7
13800.0,50.6
13860.0,51.5
13920.0,50.9
13980.0,50.7
14040.0,51.6
14100.0,51.0
14160.0,51.1
14220.0,51.6
14280.0,51.4
14340.0,50.8
14400.0,50.6
14460.0,50.5
14520.0,51.1
14580.0,49.8
14640.0,50.8
14700.0,51.0
14760.0,50.6
14820.0,50.5
14880.0,50.3
14940.0,50.8
15000.0,50.1
15060.0,50.3
15120.0,49.9
15180.0,49.7
15240.0,49.5
15300.0,49.9
15360.0,49.4
15420.0,49.3
15480.0,49.8
15540.0,47.3
15600.0,49.3
15660.0,49.4
15720.0,50.1
15780.0,49.6
15840.0,49.7
15900.0,50.1
15960.0,49.9
16020.0,49.2
16080.0,50.1
16140.0,49.0
16200.0,50.3
16260.0,49.5
16320.0,49.6
16380.0,49.0
16440.0,50.0
16500.0,50.7
16560.0,49.8
16620.0,49.8
16680.0,50.1
16740.0,49.8
16800.0,49.7
16860.0,50.5
16920.0,49.8
16980.0,50.4
17040.0,50.3
17100.0,49.4
17160.0,50.3
17220.0,50.0
17280.0,50.3
17340.0,50.6
17400.0,50.7
17460.0,50.4
17520.0,51.4
17580.0,50.4
17640.0,50.5
17700.0,50.3
17760.0,50.6
17820.0,50.6
17880.0,50.4
17940.0,50.2
18000.0,50.9
18060.0,50.8
18120.0,51.7
18180.0,48.3
18240.0,51.0
18300.0,49.9
18360.0,51.0
18420.0,50.5
18480.0,50.3
18540.0,51.5
18600.0,50.3
18660.0,50.4
18720.0,51.1
18780.0,51.3
18840.0,52.1
18900.0,51.1
18960.0,51.8
19020.0,53.0
19080.0,53.1
19140.0,52.1
19200.0,51.4
19260.0,50.4
19320.0,50.7
19380.0,51.5
19440.0,52.0
19500.0,51.6
19560.0,51.8
19620.0,51.0
19680.0,52.2
19740.0,51.9
19800.0,51.6
19860.0,51.0
19920.0,51.5
19980.0,51.2
20040.0,51.4
20100.0,51.0
20160.0,49.2
20220.0,49.9
20280.0,51.7
20340.0,52.0
20400.0,52.7
20460.0,51.0
20520.0,53.7
20580.0,51.8
20640.0,53.0
20700.0,53.4
20760.0,51.4
20820.0,53.1
20880.0,52.6
20940.0,53.3
21000.0,53.2
21060.0,52.4
21120.0,52.3
21180.0,53.5
21240.0,52.5
21300.0,51.9
21360.0,51.9
21420.0,51.2
21480.0,52.6
21540.0,51.3
21600.0,51.6
21660.0,50.8
21720.0,49.2
21780.0,50.7
21840.0,50.3
21900.0,51.1
21960.0,52.0
22020.0,51.1
22080.0,51.0
22140.0,50.6
22200.0,51.4
22260.0,49.1
22320.0,51.3
22380.0,50.5
22440.0,50.5
22500.0,50.4
22560.0,51.2
22620.0,51.0
22680.0,49.9
22740.0,50.1
22800.0,49.7
22860.0,50.9
22920.0,50.4
22980.0,51.5
23040.0,50.3
23100.0,50.3
23160.0,51.5
23220.0,51.7
23280.0,51.1
23340.0,51.7
23400.0,50.7
23460.0,52.0
23520.0,53.1
23580.0,52.6
23640.0,51.6
23700.0,52.8
23760.0,52.6
23820.0,53.0
23880.0,52.6
23940.0,52.0
24000.0,52.1
24060.0,52.8
24120.0,51.7
24180.0,52.2
24240.0,52.2
24300.0,52.3
24360.0,51.8
24420.0,52.3
24480.0,52.2
24540.0,52.0
24600.0,51.3
24660.0,52.5
24720.0,52.6
24780.0,51.7
24840.0,52.9
24900.0,50.9
24960.0,51.4
25020.0,51.0
25080.0,51.0
25140.0,51.2
25200.0,51.7
25260.0,51.5
25320.0,51.6
25380.0,51.0
25440.0,50.5
25500.0,51.7
25560.0,50.4
25620.0,50.7
25680.0,51.0
25740.0,51.7
25800.0,52.0
25860.0,51.9
25920.0,51.0
25980.0,51.6
26040.0,51.7
26100.0,51.4
26160.0,50.9
26220.0,50.3
26280.0,50.7
26340.0,51.0
26400.0,50.6
26460.0,50.4
26520.0,50.8
26580.0,50.4
26640.0,50.7
26700.0,51.0
26760.0,50.4
26820.0,50.7
26880.0,50.4
26940.0,51.2
27000.0,50.2
27060.0,50.2
27120.0,50.3
27180.0,50.1
27240.0,50.5
27300.0,49.7
27360.0,49.4
27420.0,49.8
27480.0,50.5
27540.0,50.8
27600.0,49.7
27660.0,49.7
27720.0,49.7
27780.0,49.1
27840.0,50.4
27900.0,50.7
27960.0,49.4
28020.0,48.9
28080.0,49.4
28140.0,49.1
28200.0,48.4
28260.0,49.0
28320.0,49.8
28380.0,49.5
28440.0,49.4
28500.0,48.7
28560.0,48.5
28620.0,49.5
28680.0,49.2
28740.0,48.8
28800.0,49.2
28860.0,48.9
28920.0,48.5
28980.0,48.9
29040.0,49.4
29100.0,49.2
29160.0,48.6
29220.0,49.0
29280.0,48.7
29340.0,49.7
29400.0,49.5
29460.0,48.4
29520.0,48.5
29580.0,48.8
29640.0,49.2
29700.0,48.8
29760.0,48.5
29820.0,49.1
29880.0,48.9
29940.0,48.2
30000.0,49.0
30060.0,48.2
30120.0,48.3
30180.0,48.1
30240.0,48.5
30300.0,47.7
30360.0,48.6
30420.0,49.0
30480.0,48.2
30540.0,48.5
30600.0,48.1
30660.0,46.4
30720.0,48.0
30780.0,47.4
30840.0,47.7
30900.0,47.7
30960.0,48.0
31020.0,47.6
31080.0,48.7
31140.0,49.0
31200.0,48.4
31260.0,48.3
31320.0,48.7
31380.0,49.1
31440.0,48.3
31500.0,48.3
31560.0,48.5
31620.0,48.6
31680.0,46.6
31740.0,47.3
31800.0,47.9
31860.0,49.1
31920.0,48.4
31980.0,48.9
32040.0,48.9
32100.0,48.4
32160.0,47.6
32220.0,48.5
32280.0,47.7
32340.0,48.2
32400.0,47.6
32460.0,47.8
32520.0,48.3
32580.0,47.6
32640.0,47.3
32700.0,47.7
32760.0,48.0
32820.0,48.4
32880.0,47.8
32940.0,47.7
33000.0,47.6
33060.0,48.5
33120.0,47.6
33180.0,47.7
33240.0,48.5
33300.0,48.2
33360.0,47.5
33420.0,47.6
33480.0,47.7
33540.0,48.3
33600.0,47.2
33660.0,47.4
33720.0,47.1
33780.0,47.4
33840.0,46.7
33900.0,47.6
33960.0,47.2
34020.0,47.3
34080.0,47.7
34140.0,47.3
34200.0,47.1
34260.0,47.0
34320.0,47.0
34380.0,47.1
34440.0,47.4
34500.0,46.8
34560.0,47.5
34620.0,47.2
34680.0,46.4
34740.0,46.9
34800.0,46.9
34860.0,46.5
34920.0,47.5
34980.0,46.9
35040.0,47.1
35100.0,46.8
35160.0,46.9
35220.0,46.2
35280.0,47.4
35340.0,46.9
35400.0,46.8
35460.0,46.2
35520.0,47.0
35580.0,46.7
35640.0,46.2
35700.0,45.5
35760.0,46.3
35820.0,46.4
35880.0,46.8
35940.0,46.4
36000.0,46.0
36060.0,45.8
36120.0,45.6
36180.0,46.9
36240.0,46.7
36300.0,46.4
36360.0,45.9
36420.0,46.5
36480.0,45.5
36540.0,47.6
36600.0,47.1
36660.0,46.0
36720.0,45.5
36780.0,46.8
36840.0,47.0
36900.0,45.5
36960.0,46.9
37020.0,46.8
37080.0,46.3
37140.0,45.9
37200.0,45.9
37260.0,46.1
37320.0,46.2
37380.0,46.7
37440.0,47.0
37500.0,46.5
37560.0,47.1
37620.0,46.4
37680.0,46.0
37740.0,46.4
37800.0,45.5
37860.0,46.6
37920.0,46.5
37980.0,46.0
38040.0,45.3
38100.0,45.6
38160.0,45.5
38220.0,46.4
38280.0,46.3
38340.0,46.2
38400.0,46.6
38460.0,45.9
38520.0,45.7
38580.0,44.6
38640.0,46.2
38700.0,46.4
38760.0,45.3
38820.0,45.7
38880.0,46.1
38940.0,45.8
39000.0,45.7
39060.0,45.3
39120.0,45.5
39180.0,45.8
39240.0,45.8
39300.0,45.3
39360.0,45.5
39420.0,44.9
39480.0,45.8
39540.0,44.8
39600.0,46.0
39660.0,45.1
39720.0,46.1
39780.0,45.4
39840.0,45.9
39900.0,46.0
39960.0,46.3
40020.0,46.2
40080.0,46.0
40140.0,45.8
40200.0,46.2
40260.0,46.1
40320.0,45.3
40380.0,45.3
40440.0,45.9
40500.0,45.3
40560.0,45.9
40620.0,45.2
40680.0,46.6
40740.0,46.3
40800.0,45.9
40860.0,45.4
40920.0,45.7
40980.0,45.3
41040.0,45.3
41100.0,44.9
41160.0,46.2
41220.0,45.5
41280.0,44.9
41340.0,44.9
41400.0,44.9
41460.0,46.4
41520.0,46.8
41580.0,45.5
41640.0,46.2
41700.0,46.4
41760.0,46.1
41820.0,45.1
41880.0,45.6
41940.0,46.1
42000.0,46.1
42060.0,46.3
42120.0,45.8
42180.0,47.1
42240.0,46.6
42300.0,47.3
42360.0,46.1
42420.0,46.1
42480.0,46.1
42540.0,45.8
42600.0,46.2
42660.0,46.3
42720.0,45.9
42780.0,45.4
42840.0,45.4
42900.0,46.1
42960.0,45.8
43020.0,46.9
43080.0,45.3
43140.0,44.8
43200.0,46.0
43260.0,46.3
43320.0,45.7
43380.0,44.9
43440.0,46.1
43500.0,45.9
43560.0,45.6
43620.0,46.2
43680.0,45.8
43740.0,46.0
43800.0,46.5
43860.0,46.2
43920.0,46.6
43980.0,45.7
44040.0,46.0
44100.0,45.9
44160.0,46.2
44220.0,46.0
44280.0,45.6
44340.0,45.0
44400.0,45.8
44460.0,45.2
44520.0,46.3
44580.0,45.2
44640.0,45.7
44700.0,44.7
44760.0,45.8
44820.0,46.0
44880.0,45.7
44940.0,45.8
45000.0,45.8
45060.0,46.2
45120.0,45.8
45180.0,45.2
45240.0,44.7
45300.0,45.0
45360.0,45.7
45420.0,45.2
45480.0,45.9
45540.0,44.8
45600.0,45.4
45660.0,44.9
45720.0,45.7
45780.0,45.1
45840.0,44.8
45900.0,46.3
45960.0,46.3
46020.0,45.9
46080.0,45.1
46140.0,44.6
46200.0,44.7
46260.0,46.1
46320.0,44.6
46380.0,45.2
46440.0,45.6
46500.0,44.5
46560.0,44.6
46620.0,45.1
46680.0,44.6
46740.0,45.6
46800.0,45.6
46860.0,44.7
46920.0,44.6
46980.0,45.0
47040.0,44.8
47100.0,45.1
47160.0,45.0
47220.0,44.7
47280.0,44.4
47340.0,44.1
47400.0,44.2
47460.0,44.4
47520.0,44.3
47580.0,44.9
47640.0,44.4
47700.0,44.7
47760.0,44.2
47820.0,44.5
47880.0,44.2
47940.0,43.6
48000.0,44.1
48060.0,45.0
48120.0,45.2
48180.0,45.2
48240.0,44.7
48300.0,45.4
48360.0,45.5
48420.0,44.4
48480.0,44.3
48540.0,44.8
48600.0,44.3
48660.0,43.9
48720.0,43.5
48780.0,44.2
48840.0,44.6
48900.0,44.5
48960.0,44.6
49020.0,44.3
49080.0,43.8
49140.0,44.9
49200.0,44.3
49260.0,43.9
49320.0,43.9
49380.0,44.4
49440.0,44.8
49500.0,45.0
49560.0,45.4
49620.0,44.9
49680.0,45.5
49740.0,44.5
49800.0,44.8
49860.0,44.6
49920.0,45.1
49980.0,45.2
50040.0,45.1
50100.0,45.6
50160.0,44.1
50220.0,44.0
50280.0,44.0
50340.0,43.9
50400.0,43.7
50460.0,45.2
50520.0,44.6
50580.0,44.8
50640.0,44.8
50700.0,44.8
50760.0,45.0
50820.0,44.1
50880.0,45.5
50940.0,45.3
51000.0,44.4
51060.0,45.5
51120.0,45.5
51180.0,45.8
51240.0,44.7
51300.0,44.5
51360.0,45.7
51420.0,45.5
51480.0,45.7
51540.0,46.1
51600.0,46.6
51660.0,46.0
51720.0,46.3
51780.0,44.9
51840.0,45.1
51900.0,45.3
51960.0,45.2
52020.0,44.1
52080.0,45.2
52140.0,44.5
52200.0,44.8
52260.0,45.2
52320.0,45.0
52380.0,44.2
52440.0,45.5
52500.0,46.6
52560.0,45.2
52620.0,45.1
52680.0,45.0
52740.0,45.4
52800.0,45.5
52860.0,45.4
52920.0,45.5
52980.0,45.4
53040.0,45.2
53100.0,44.7
53160.0,45.9
53220.0,46.7
53280.0,46.0
53340.0,46.0
53400.0,45.6
53460.0,45.7
53520.0,45.5
53580.0,46.0
53640.0,45.2
53700.0,46.0
53760.0,45.0
53820.0,45.8
53880.0,44.7
53940.0,44.8
54000.0,45.6
54060.0,44.7
54120.0,45.8
54180.0,45.0
54240.0,44.0
54300.0,45.6
54360.0,45.1
54420.0,45.7
54480.0,44.9
54540.0,45.4
54600.0,45.5
54660.0,43.8
54720.0,45.2
54780.0,45.1
54840.0,46.7
54900.0,46.0
54960.0,45.6
55020.0,45.9
55080.0,45.4
55140.0,44.8
55200.0,44.5
55260.0,44.5
55320.0,45.6
55380.0,44.0
55440.0,45.5
55500.0,45.8
55560.0,46.0
55620.0,45.6
55680.0,45.8
55740.0,46.6
55800.0,46.5
55860.0,46.5
55920.0,46.1
55980.0,45.5
56040.0,46.1
56100.0,46.8
56160.0,47.0
56220.0,46.9
56280.0,46.9
56340.0,46.0
56400.0,45.5
56460.0,47.5
56520.0,46.2
56580.0,47.2
56640.0,47.4
56700.0,46.0
56760.0,45.4
56820.0,45.5
56880.0,46.4
56940.0,46.9
57000.0,47.2
57060.0,47.3
57120.0,46.8
57180.0,47.3
57240.0,48.1
57300.0,46.7
57360.0,46.3
57420.0,47.5
57480.0,48.1
57540.0,47.5
57600.0,47.5
57660.0,47.4
57720.0,47.8
57780.0,47.9
57840.0,46.3
57900.0,47.7
57960.0,47.6
58020.0,47.9
58080.0,47.7
58140.0,47.2
58200.0,46.8
58260.0,47.4
58320.0,47.6
58380.0,47.0
58440.0,48.4
58500.0,47.5
58560.0,47.5
58620.0,46.8
58680.0,47.6
58740.0,45.7
58800.0,47.2
58860.0,47.1
58920.0,48.8
58980.0,48.2
59040.0,49.2
59100.0,48.8
59160.0,47.6
59220.0,48.5
59280.0,48.9
59340.0,48.0
59400.0,47.6
59460.0,47.3
59520.0,48.2
59580.0,47.8
59640.0,47.9
59700.0,49.0
59760.0,46.3
59820.0,46.7
59880.0,48.1
59940.0,49.0
60000.0,49.6
60060.0,48.0
60120.0,48.1
60180.0,49.6
60240.0,49.5
60300.0,49.0
60360.0,48.2
60420.0,48.1
60480.0,48.1
60540.0,47.6
60600.0,49.3
60660.0,49.5
60720.0,49.1
60780.0,49.6
60840.0,49.6
60900.0,49.5
60960.0,51.0
61020.0,50.3
61080.0,49.5
61140.0,50.0
61200.0,50.2
61260.0,50.4
61320.0,49.5
61380.0,48.8
61440.0,50.3
61500.0,50.0
61560.0,51.5
61620.0,49.9
61680.0,49.4
61740.0,49.3
61800.0,50.1
61860.0,50.8
61920.0,49.9
61980.0,49.4
62040.0,49.3
62100.0,48.7
62160.0,49.2
62220.0,50.2
62280.0,49.6
62340.0,50.9
62400.0,50.2
62460.0,50.2
62520.0,48.4
62580.0,49.6
62640.0,49.1
62700.0,49.2
62760.0,51.2
62820.0,51.5
62880.0,51.1
62940.0,52.4
63000.0,50.7
63060.0,50.9
63120.0,48.8
63180.0,50.2
63240.0,50.0
63300.0,50.3
63360.0,49.6
63420.0,51.9
63480.0,50.1
63540.0,50.5
63600.0,50.9
63660.0,51.8
63720.0,51.1
63780.0,51.4
63840.0,51.2
63900.0,51.3
63960.0,50.6
64020.0,51.5
64080.0,52.6
64140.0,52.8
64200.0,51.7
64260.0,51.8
64320.0,51.4
64380.0,50.4
64440.0,49.9
64500.0,50.4
64560.0,50.5
64620.0,50.6
64680.0,51.2
64740.0,50.9
64800.0,51.0
64860.0,49.8
64920.0,51.4
64980.0,50.7
65040.0,51.0
65100.0,49.5
65160.0,50.1
65220.0,50.8
65280.0,51.0
65340.0,50.1
65400.0,49.9
65460.0,49.7
65520.0,50.3
65580.0,50.6
65640.0,51.5
65700.0,52.5
65760.0,51.8
65820.0,51.8
65880.0,51.4
65940.0,50.7
66000.0,51.2
66060.0,50.4
66120.0,51.3
66180.0,51.5
66240.0,52.5
66300.0,52.3
66360.0,51.8
66420.0,52.3
66480.0,52.3
66540.0,53.1
66600.0,52.6
66660.0,53.7
66720.0,53.2
66780.0,53.0
66840.0,52.0
66900.0,52.3
66960.0,52.5
67020.0,53.3
67080.0,53.3
67140.0,52.6
67200.0,52.4
67260.0,51.9
67320.0,52.5
67380.0,53.6
67440.0,54.9
67500.0,54.5
67560.0,54.4
67620.0,54.5
67680.0,54.8
67740.0,53.5
67800.0,55.3
67860.0,56.0
67920.0,54.1
67980.0,53.6
68040.0,54.3
68100.0,53.6
68160.0,55.6
68220.0,54.1
68280.0,55.4
68340.0,54.0
68400.0,52.9
68460.0,54.0
68520.0,53.1
68580.0,53.2
68640.0,55.0
68700.0,54.2
68760.0,53.0
68820.0,53.9
68880.0,55.3
68940.0,55.5
69000.0,56.3
69060.0,56.8
69120.0,54.6
69180.0,56.3
69240.0,57.1
69300.0,57.6
69360.0,56.6
69420.0,56.8
69480.0,56.2
69540.0,55.9
69600.0,56.9
69660.0,56.3
69720.0,56.4
69780.0,57.8
69840.0,57.3
69900.0,56.0
69960.0,56.0
70020.0,55.8
70080.0,55.1
70140.0,55.9
70200.0,55.1
70260.0,55.6
70320.0,56.1
70380.0,54.9
70440.0,52.3
70500.0,54.0
70560.0,55.1
70620.0,56.2
70680.0,56.3
70740.0,56.5
70800.0,56.2
70860.0,56.4
70920.0,56.0
70980.0,53.7
71040.0,56.7
71100.0,58.4
71160.0,56.8
71220.0,55.3
71280.0,56.1
71340.0,55.7
71400.0,54.2
71460.0,56.3
71520.0,55.3
71580.0,55.6
71640.0,58.5
71700.0,60.2
71760.0,63.1
71820.0,61.5
71880.0,61.2
71940.0,61.2
72000.0,62.1
72060.0,62.4
72120.0,61.3
72180.0,62.6
72240.0,62.8
72300.0,58.5
72360.0,58.7
72420.0,59.4
72480.0,60.4
72540.0,59.9
72600.0,60.9
72660.0,60.9
72720.0,61.0
72780.0,60.2
72840.0,62.0
72900.0,60.2
72960.0,61.9
73020.0,60.9
73080.0,60.8
73140.0,60.5
73200.0,59.4
73260.0,60.9
73320.0,61.3
73380.0,62.8
73440.0,62.5
73500.0,63.1
73560.0,65.2
73620.0,63.4
73680.0,65.2
73740.0,63.7
73800.0,65.4
73860.0,64.5
73920.0,70.5
73980.0,72.6
74040.0,72.3
74100.0,73.2
74160.0,71.8
74220.0,73.2
74280.0,73.7
74340.0,74.3
74400.0,74.5
74460.0,72.2
74520.0,73.3
74580.0,73.8
74640.0,72.7
74700.0,73.1
74760.0,72.9
74820.0,71.0
74880.0,71.9
74940.0,71.8
75000.0,74.5
75060.0,77.8
75120.0,73.1
75180.0,72.5
75240.0,76.1
75300.0,80.8
75360.0,80.5
75420.0,76.0
75480.0,75.4
75540.0,74.1
75600.0,74.7
75660.0,71.8
75720.0,74.3
75780.0,74.8
75840.0,73.9
75900.0,74.2
75960.0,74.2
76020.0,74.5
76080.0,73.4
76140.0,74.6
76200.0,75.2
76260.0,75.7
76320.0,76.1
76380.0,75.1
76440.0,75.2
76500.0,73.3
76560.0,76.3
76620.0,74.8
76680.0,74.1
76740.0,73.0
76800.0,73.8
76860.0,73.9
76920.0,73.3
76980.0,74.2
77040.0,74.2
77100.0,74.8
77160.0,74.5
77220.0,76.7
77280.0,75.0
77340.0,77.3
77400.0,77.2
77460.0,77.3
77520.0,75.2
77580.0,74.2
77640.0,75.2
77700.0,74.6
77760.0,72.1
77820.0,72.9
77880.0,-9999.0
77940.0,-9999.0
78000.0,-9999.0
78060.0,-9999.0
78120.0,-9999.0
78180.0,-9999.0
78240.0,-9999.0
78300.0,-9999.0
78360.0,-9999.0
78420.0,-9999.0
78480.0,-9999.0
78540.0,-9999.0
78600.0,-9999.0
78660.0,-9999.0
78720.0,-9999.0
78780.0,-9999.0
78840.0,-9999.0
78900.0,-9999.0
78960.0,-9999.0
79020.0,-9999.0
79080.0,-9999.0
79140.0,-9999.0
79200.0,-9999.0
79260.0,-9999.0
79320.0,70.0
79380.0,66.8
79440.0,66.3
79500.0,66.7
79560.0,68.3
79620.0,68.8
79680.0,68.7
79740.0,67.8
79800.0,66.9
79860.0,67.6
79920.0,68.4
79980.0,67.8
80040.0,68.5
80100.0,67.0
80160.0,67.5
80220.0,67.5
80280.0,67.9
80340.0,63.0
80400.0,65.3
80460.0,63.2
80520.0,67.5
80580.0,66.8
80640.0,67.2
80700.0,67.8
80760.0,68.1
80820.0,66.4
80880.0,66.9
80940.0,67.3
81000.0,67.2
81060.0,66.3
81120.0,65.1
81180.0,65.9
81240.0,66.7
81300.0,66.5
81360.0,67.8
81420.0,66.0
81480.0,65.3
81540.0,65.6
81600.0,65.9
81660.0,66.3
81720.0,66.2
81780.0,66.3
81840.0,66.3
81900.0,65.6
81960.0,67.6
82020.0,67.1
82080.0,66.1
82140.0,66.6
82200.0,66.9
82260.0,66.3
82320.0,65.6
82380.0,67.2
82440.0,67.4
82500.0,63.9
82560.0,65.7
82620.0,65.8
82680.0,66.2
82740.0,67.0
82800.0,66.6
82860.0,66.9
82920.0,65.1
82980.0,65.3
83040.0,65.9
83100.0,66.3
83160.0,66.8
83220.0,66.5
83280.0,66.9
83340.0,65.5
83400.0,66.8
83460.0,65.1
83520.0,66.0
83580.0,66.6
83640.0,67.2
83700.0,66.4
83760.0,66.8
83820.0,66.2
83880.0,66.5
83940.0,66.5
84000.0,66.6
84060.0,66.6
84120.0,67.7
84180.0,67.9
84240.0,65.1
84300.0,65.0
84360.0,65.5
84420.0,66.8
84480.0,66.7
84540.0,67.0
84600.0,67.7
84660.0,68.4
84720.0,68.7
84780.0,69.4
84840.0,69.0
84900.0,69.2
84960.0,67.9
85020.0,67.8
85080.0,68.3
85140.0,67.8
85200.0,68.2
85260.0,69.1
85320.0,68.7
85380.0,67.1
85440.0,68.5
85500.0,68.6
85560.0,70.4
85620.0,69.7
85680.0,69.4
85740.0,69.9
85800.0,68.3
85860.0,68.1
85920.0,70.3
85980.0,70.0
86040.0,69.6
86100.0,68.6
86160.0,69.5
86220.0,68.9
86280.0,69.7
86340.0,69.4
