37, 1001
Michael A Robinson, Chris Jernigan, Subi Thakali
NOAA ESRL Chemical Sciences Laboratory and CIRES, U. of Colorado
NOAA Iodide CIMS Instrument
USOS
1, 1
2024, 08, 07, 2024, 08, 08
1
starttime_UTC, seconds_past_midnight, seconds_of_day_since_00:00:00_UTC
5
1, 1, 1, 1, 1
-9999, -9999, -9999, -9999, -9999
C4H7NO5_NOAACIMS, pptv, Gas_C4H7NO5_InSitu_S_AVMR, 
ISOPN_NOAACIMS, pptv, Gas_ISOPN_InSitu_S_AVMR, 
C5H10O3_NOAACIMS, pptv, Gas_C5H10O3_InSitu_S_AVMR, 
C5H9NO5_NOAACIMS, pptv, Gas_C5H9NO5_InSitu_S_AVMR, 
C10H17NO4_NOAACIMS, pptv, Gas_C10H17NO4_InSitu_S_AVMR, 
0
18
PI_CONTACT_INFO: 325 Broadway, R/CSD 7, Boulder, Colorado 80305; michael.a.robinson@noaa.gov; chris.jernigan@noaa.gov;
PLATFORM: NOAA CSL Mobile Lab
LOCATION: SLC, Utah
ASSOCIATED_DATA: 1Hz data also available on request.
INSTRUMENT_INFO: NOAA I- ToF CIMS
DATA_INFO: All data in parts per trillion by volume (pptv). 1 Hz data is available upon request.
UNCERTAINTY: TBD
ULOD_FLAG: -7777
ULOD_VALUE: N/A
LLOD_FLAG: -8888
LLOD_VALUE: N/A
DM_CONTACT_INFO: Nathan Howard; nathan.h.howard@noaa.gov
PROJECT_INFO: USOS, summer 2024. https://csl.noaa.gov/groups/csl7/measurements/2024usos/
STIPULATIONS_ON_USE: Users are strongly encouraged to contact the PI for proper data usage.
OTHER_COMMENTS: 
REVISION: RA
RA: Preliminary Data; For in-field use only
starttime_UTC, C4H7NO5_NOAACIMS, ISOPN_NOAACIMS, C5H10O3_NOAACIMS, C5H9NO5_NOAACIMS, C10H17NO4_NOAACIMS
     0,  5.111,  6.781, 34.445,  3.230,  0.063
    60,  5.044,  6.450, 33.554,  3.024,  0.114
   120,  4.519,  6.018, 33.244,  3.119,  0.019
   180,  4.406,  6.083, 33.487,  2.749,  0.093
   240,  4.443,  5.632, 33.310,  2.832,  0.177
   300,  4.490,  5.801, 32.330,  2.928,  0.130
   360,  4.512,  5.699, 31.751,  2.896,  0.137
   420,  4.340,  5.736, 32.123,  2.881,  0.008
   480,  4.038,  5.944, 30.511,  2.918,  0.062
   540,  3.852,  5.911, 29.693,  2.803,  0.180
   600,  4.001,  5.781, 29.507,  2.796,  0.107
   660,  3.952,  6.190, 29.891,  2.647,  0.116
   720,  3.755,  5.824, 29.519,  2.641,  0.104
   780,  3.605,  6.096, 30.108,  2.800,  0.115
   840,  3.743,  5.467, 28.956,  2.725,  0.010
   900,  3.732,  5.204, 29.997,  2.566,  0.011
   960,  3.954,  5.216, 30.785,  2.738, -0.049
  1020,  4.339,  6.294, 33.459,  2.909,  0.115
  1080,  4.461,  6.158, 34.315,  2.866,  0.205
  1140,  4.480,  5.901, 36.346,  2.874,  0.059
  1200,  4.493,  5.852, 34.536,  2.903,  0.174
  1260, -9999.000, -9999.000, -9999.000, -9999.000, -9999.000
  1320,  5.271,  5.775, 33.890,  3.203,  0.073
  1380,  5.274,  6.048, 40.059,  3.259,  0.133
  1440,  5.350,  5.827, 39.819,  3.130,  0.007
  1500,  5.002,  5.765, 39.212,  3.138,  0.113
  1560,  4.834,  5.645, 36.134,  3.005,  0.076
  1620,  4.958,  5.585, 36.849,  3.123,  0.004
  1680,  5.037,  6.086, 39.727,  3.166,  0.057
  1740,  5.144,  6.346, 41.944,  3.154,  0.119
  1800,  5.110,  6.881, 42.596,  3.135,  0.188
  1860,  5.107,  6.650, 43.443,  3.123,  0.150
  1920,  4.873,  6.535, 42.743,  3.069,  0.055
  1980,  4.474,  5.589, 40.162,  2.844, -0.088
  2040,  4.540,  5.804, 38.184,  2.822,  0.088
  2100,  4.404,  5.641, 38.903,  3.038,  0.094
  2160,  4.508,  5.341, 38.193,  2.729,  0.078
  2220,  4.282,  5.924, 38.664,  2.981,  0.081
  2280,  3.975,  4.757, 36.052,  2.280,  0.009
  2340,  3.913,  6.490, 35.562,  2.774,  0.312
  2400, -9999.000, -9999.000, -9999.000, -9999.000, -9999.000
  2460, -9999.000, -9999.000, -9999.000, -9999.000, -9999.000
  2520, -9999.000, -9999.000, -9999.000, -9999.000, -9999.000
  2580, -9999.000, -9999.000, -9999.000, -9999.000, -9999.000
  2640, -9999.000, -9999.000, -9999.000, -9999.000, -9999.000
  2700, -9999.000, -9999.000, -9999.000, -9999.000, -9999.000
  2760, -9999.000, -9999.000, -9999.000, -9999.000, -9999.000
  2820, -9999.000, -9999.000, -9999.000, -9999.000, -9999.000
  2880, -9999.000, -9999.000, -9999.000, -9999.000, -9999.000
  2940, -9999.000, -9999.000, -9999.000, -9999.000, -9999.000
  3000, -9999.000, -9999.000, -9999.000, -9999.000, -9999.000
  3060, -9999.000, -9999.000, -9999.000, -9999.000, -9999.000
  3120, -9999.000, -9999.000, -9999.000, -9999.000, -9999.000
  3180, -9999.000, -9999.000, -9999.000, -9999.000, -9999.000
  3240, -9999.000, -9999.000, -9999.000, -9999.000, -9999.000
  3300, -9999.000, -9999.000, -9999.000, -9999.000, -9999.000
  3360, -9999.000, -9999.000, -9999.000, -9999.000, -9999.000
  3420, -9999.000, -9999.000, -9999.000, -9999.000, -9999.000
  3480, -9999.000, -9999.000, -9999.000, -9999.000, -9999.000
  3540, -9999.000, -9999.000, -9999.000, -9999.000, -9999.000
  3600, -9999.000, -9999.000, -9999.000, -9999.000, -9999.000
  3660, -9999.000, -9999.000, -9999.000, -9999.000, -9999.000
  3720, -9999.000, -9999.000, -9999.000, -9999.000, -9999.000
  3780, -9999.000, -9999.000, -9999.000, -9999.000, -9999.000
  3840, -9999.000, -9999.000, -9999.000, -9999.000, -9999.000
  3900, -9999.000, -9999.000, -9999.000, -9999.000, -9999.000
  3960, -9999.000, -9999.000, -9999.000, -9999.000, -9999.000
  4020, -9999.000, -9999.000, -9999.000, -9999.000, -9999.000
  4080, -9999.000, -9999.000, -9999.000, -9999.000, -9999.000
  4140, -9999.000, -9999.000, -9999.000, -9999.000, -9999.000
  4200, -9999.000, -9999.000, -9999.000, -9999.000, -9999.000
  4260, -9999.000, -9999.000, -9999.000, -9999.000, -9999.000
  4320, -9999.000, -9999.000, -9999.000, -9999.000, -9999.000
  4380, -9999.000, -9999.000, -9999.000, -9999.000, -9999.000
  4440, -9999.000, -9999.000, -9999.000, -9999.000, -9999.000
  4500, -9999.000, -9999.000, -9999.000, -9999.000, -9999.000
  4560, -9999.000, -9999.000, -9999.000, -9999.000, -9999.000
  4620, -9999.000, -9999.000, -9999.000, -9999.000, -9999.000
  4680, -9999.000, -9999.000, -9999.000, -9999.000, -9999.000
  4740, -9999.000, -9999.000, -9999.000, -9999.000, -9999.000
  4800, -9999.000, -9999.000, -9999.000, -9999.000, -9999.000
  4860, -9999.000, -9999.000, -9999.000, -9999.000, -9999.000
  4920, -9999.000, -9999.000, -9999.000, -9999.000, -9999.000
  4980, -9999.000, -9999.000, -9999.000, -9999.000, -9999.000
  5040, -9999.000, -9999.000, -9999.000, -9999.000, -9999.000
  5100, -9999.000, -9999.000, -9999.000, -9999.000, -9999.000
  5160, -9999.000, -9999.000, -9999.000, -9999.000, -9999.000
  5220, -9999.000, -9999.000, -9999.000, -9999.000, -9999.000
  5280, -9999.000, -9999.000, -9999.000, -9999.000, -9999.000
  5340, -9999.000, -9999.000, -9999.000, -9999.000, -9999.000
  5400, -9999.000, -9999.000, -9999.000, -9999.000, -9999.000
  5460, -9999.000, -9999.000, -9999.000, -9999.000, -9999.000
  5520, -9999.000, -9999.000, -9999.000, -9999.000, -9999.000
  5580, -9999.000, -9999.000, -9999.000, -9999.000, -9999.000
  5640, -9999.000, -9999.000, -9999.000, -9999.000, -9999.000
  5700, -9999.000, -9999.000, -9999.000, -9999.000, -9999.000
  5760, -9999.000, -9999.000, -9999.000, -9999.000, -9999.000
  5820, -9999.000, -9999.000, -9999.000, -9999.000, -9999.000
  5880, -9999.000, -9999.000, -9999.000, -9999.000, -9999.000
  5940,  1.964,  4.065, 16.286,  2.414,  0.202
  6000,  1.908,  4.010, 15.604,  2.363,  0.151
  6060,  1.952,  4.608, 17.012,  2.576,  0.222
  6120,  2.003,  4.767, 17.123,  2.526,  0.245
  6180,  1.989,  4.555, 17.220,  2.537,  0.262
  6240,  2.010,  4.833, 17.567,  2.568,  0.243
  6300,  2.017,  4.702, 18.159,  2.585,  0.284
  6360,  2.085,  5.047, 18.816,  2.692,  0.307
  6420,  2.074,  4.869, 19.631,  2.645,  0.263
  6480,  2.048,  5.145, 18.267,  2.730,  0.328
  6540,  2.118,  5.178, 19.884,  2.780,  0.392
  6600,  2.148,  5.029, 19.905,  2.734,  0.371
  6660,  2.038,  5.574, 20.497,  2.872,  0.423
  6720,  1.963,  5.398, 19.248,  2.880,  0.263
  6780, -9999.000, -9999.000, -9999.000, -9999.000, -9999.000
  6840,  2.033,  5.373, 17.901,  2.869,  0.270
  6900,  2.198,  6.539, 18.794,  2.975,  0.358
  6960,  2.159,  6.549, 19.316,  2.991,  0.348
  7020,  2.218,  6.853, 19.902,  2.758,  0.405
  7080,  2.289,  6.845, 20.261,  2.870,  0.420
  7140,  2.299,  6.811, 19.901,  2.940,  0.395
  7200,  2.331,  7.140, 21.129,  2.906,  0.395
  7260,  2.371,  7.454, 20.845,  2.960,  0.473
  7320,  2.366,  7.301, 21.103,  2.935,  0.308
  7380,  2.428,  7.728, 20.637,  2.895,  0.441
  7440,  2.375,  7.666, 20.754,  2.927,  0.419
  7500,  2.395,  7.155, 20.375,  3.000,  0.260
  7560,  2.334,  8.044, 21.447,  3.115,  0.454
  7620,  2.409,  8.451, 22.102,  3.212,  0.434
  7680,  2.476,  9.061, 24.534,  3.136,  0.427
  7740,  2.657, 10.400, 28.595,  3.351,  0.361
  7800,  2.643,  9.794, 32.470,  2.495,  0.248
  7860,  2.615, 10.282, 30.025,  3.224,  0.351
  7920,  2.702, 10.374, 29.761,  3.219,  0.427
  7980,  2.800, 10.726, 32.095,  3.228,  0.255
  8040,  2.796, 10.490, 30.733,  3.366,  0.453
  8100,  2.829, 10.835, 31.745,  3.489,  0.365
  8160,  2.817, 11.236, 32.748,  3.438,  0.481
  8220,  2.919, 11.716, 33.360,  3.660,  0.378
  8280,  2.925, 11.559, 35.150,  3.530,  0.418
  8340,  2.948, 11.618, 37.094,  3.649,  0.391
  8400,  2.920, 11.448, 35.913,  3.585,  0.461
  8460,  2.922, 11.590, 36.194,  3.503,  0.452
  8520,  2.893, 11.570, 38.469,  3.505,  0.362
  8580,  2.968, 11.801, 40.235,  3.665,  0.431
  8640, -9999.000, -9999.000, -9999.000, -9999.000, -9999.000
  8700,  2.871, 11.148, 35.815,  3.615,  0.342
  8760,  2.970, 12.389, 39.572,  3.719,  0.377
  8820,  3.001, 12.535, 38.965,  3.833,  0.470
  8880,  2.988, 12.401, 41.625,  3.965,  0.447
  8940,  2.920, 12.381, 42.581,  3.930,  0.538
  9000,  2.927, 12.641, 44.125,  4.081,  0.457
  9060,  2.864, 12.171, 44.929,  3.957,  0.415
  9120,  2.810, 11.865, 44.480,  3.855,  0.426
  9180,  2.844, 11.772, 44.787,  3.880,  0.432
  9240,  2.767, 12.068, 44.446,  3.992,  0.404
  9300,  2.774, 11.626, 45.363,  3.719,  0.421
  9360,  2.723, 11.407, 44.937,  3.742,  0.459
  9420,  2.781, 11.954, 45.895,  3.947,  0.465
  9480,  2.799, 12.253, 46.270,  3.962,  0.462
  9540,  2.788, 11.967, 47.341,  4.224,  0.428
  9600,  2.728, 12.165, 46.243,  4.227,  0.439
  9660,  2.741, 13.159, 47.526,  4.436,  0.520
  9720,  2.793, 13.328, 48.256,  4.596,  0.527
  9780,  2.740, 13.096, 48.765,  4.650,  0.521
  9840,  2.779, 13.138, 48.053,  4.624,  0.472
  9900,  2.748, 12.723, 49.014,  4.846,  0.479
  9960,  2.686, 13.093, 48.444,  4.903,  0.511
 10020,  2.805, 13.189, 49.548,  4.950,  0.493
 10080,  2.743, 13.317, 50.242,  4.771,  0.464
 10140,  2.747, 13.461, 49.745,  4.801,  0.464
 10200,  2.761, 12.923, 49.362,  4.768,  0.526
 10260,  2.748, 12.448, 49.368,  4.805,  0.503
 10320,  2.753, 12.217, 48.567,  4.771,  0.528
 10380,  2.682, 11.972, 49.513,  4.817,  0.483
 10440,  2.668, 11.983, 49.582,  4.956,  0.481
 10500,  2.596, 10.447, 45.199,  4.317,  0.430
 10560,  2.603, 11.114, 46.079,  4.893,  0.500
 10620,  2.620, 10.591, 46.667,  4.891,  0.518
 10680,  2.641, 10.475, 47.540,  4.886,  0.478
 10740,  2.637, 11.069, 47.507,  4.721,  0.471
 10800,  2.656, 11.523, 49.354,  4.663,  0.428
 10860,  2.664, 11.211, 49.272,  4.551,  0.470
 10920,  2.708, 11.309, 50.138,  4.580,  0.446
 10980,  2.694, 11.391, 50.572,  4.533,  0.450
 11040,  2.692, 11.519, 50.638,  4.548,  0.443
 11100,  2.694, 11.283, 50.521,  4.571,  0.382
 11160,  2.661, 11.724, 49.784,  4.364,  0.423
 11220,  2.621, 11.082, 48.844,  4.432,  0.452
 11280,  2.649, 10.273, 49.754,  4.518,  0.444
 11340,  2.627,  9.964, 48.060,  4.467,  0.372
 11400,  2.581, 10.238, 47.022,  4.388,  0.393
 11460,  2.627, 10.156, 48.260,  4.605,  0.396
 11520,  2.548, 10.354, 46.601,  4.452,  0.394
 11580,  2.606, 10.920, 46.318,  4.112,  0.413
 11640,  2.579, 10.384, 46.245,  4.299,  0.460
 11700,  2.531, 10.249, 46.630,  4.441,  0.366
 11760,  2.514,  9.983, 46.696,  4.304,  0.413
 11820,  2.506,  9.814, 45.188,  4.329,  0.393
 11880,  2.530,  9.732, 46.796,  4.324,  0.344
 11940,  2.538, 10.109, 46.837,  4.266,  0.381
 12000,  2.581,  9.611, 47.018,  4.196,  0.373
 12060,  2.549, 10.126, 46.416,  4.128,  0.408
 12120,  2.560,  9.583, 46.356,  4.141,  0.278
 12180,  2.614, 10.110, 47.215,  3.985,  0.328
 12240,  2.590, 10.109, 46.778,  4.166,  0.340
 12300,  2.579,  9.861, 46.000,  3.904,  0.493
 12360,  2.448,  9.964, 41.477,  3.430,  0.111
 12420,  2.384,  9.763, 41.946,  3.776,  0.362
 12480,  2.503, 10.084, 44.171,  4.011,  0.386
 12540,  2.500,  9.747, 45.439,  4.178,  0.322
 12600,  2.461,  8.971, 44.335,  4.098,  0.346
 12660,  2.487,  8.909, 44.408,  4.102,  0.379
 12720,  2.431,  8.895, 45.411,  4.235,  0.360
 12780,  2.437,  8.798, 44.042,  4.221,  0.335
 12840,  2.405,  8.596, 43.916,  4.213,  0.261
 12900,  2.450,  8.558, 43.657,  4.190,  0.411
 12960,  2.431,  8.823, 43.754,  3.982,  0.418
 13020,  2.474,  8.834, 42.234,  4.217,  0.439
 13080,  2.425,  8.679, 43.477,  4.019,  0.396
 13140,  2.386,  8.429, 41.885,  4.053,  0.430
 13200,  2.416,  8.737, 41.574,  4.146,  0.459
 13260,  2.397,  8.463, 42.179,  4.097,  0.391
 13320,  2.410,  8.297, 41.816,  4.218,  0.418
 13380,  2.375,  8.255, 42.182,  4.045,  0.348
 13440,  2.417,  8.385, 43.173,  4.100,  0.449
 13500,  2.423,  8.813, 41.844,  3.961,  0.417
 13560,  2.399,  8.515, 44.169,  4.217,  0.501
 13620,  2.414,  8.390, 43.378,  4.313,  0.446
 13680,  2.479,  8.252, 43.536,  4.290,  0.516
 13740,  2.426,  8.594, 43.270,  4.206,  0.484
 13800,  2.449,  8.492, 43.310,  4.299,  0.563
 13860,  2.486,  8.675, 44.565,  4.380,  0.487
 13920,  2.456,  9.029, 44.568,  4.428,  0.574
 13980,  2.447,  8.542, 44.346,  4.297,  0.611
 14040,  2.478,  8.581, 44.244,  4.382,  0.625
 14100,  2.576,  8.285, 45.770,  4.569,  0.647
 14160,  2.484,  8.219, 47.166,  4.864,  0.811
 14220,  2.531,  8.588, 42.635,  4.459,  0.534
 14280,  2.581,  8.877, 43.982,  4.781,  0.654
 14340,  2.562,  8.686, 45.401,  4.730,  0.656
 14400,  2.702,  9.342, 47.485,  4.805,  0.715
 14460,  2.702,  9.374, 47.270,  4.942,  0.543
 14520,  2.689,  9.344, 46.790,  4.918,  0.593
 14580,  2.698,  9.307, 47.086,  5.013,  0.678
 14640,  2.707,  9.781, 48.392,  5.056,  0.668
 14700,  2.691,  9.092, 48.673,  5.224,  0.630
 14760,  2.684,  9.664, 47.641,  5.219,  0.736
 14820,  2.739, 10.055, 48.570,  5.147,  0.688
 14880,  2.695,  9.592, 48.026,  5.150,  0.713
 14940,  2.728,  9.997, 47.824,  5.453,  0.726
 15000,  2.701,  9.507, 47.901,  5.292,  0.739
 15060,  2.674,  9.569, 47.238,  5.285,  0.706
 15120,  2.667,  9.354, 48.202,  5.298,  0.752
 15180,  2.611,  9.683, 46.963,  5.279,  0.645
 15240,  2.644,  9.856, 46.858,  5.214,  0.676
 15300,  2.584,  9.102, 45.793,  5.333,  0.736
 15360,  2.594,  9.296, 46.574,  5.361,  0.705
 15420,  2.556,  9.269, 44.482,  5.057,  0.662
 15480,  2.588,  9.599, 45.195,  5.410,  0.683
 15540,  2.543,  9.359, 45.015,  5.253,  0.623
 15600,  2.522,  9.715, 44.991,  5.027,  0.670
 15660,  2.552,  9.377, 44.677,  5.224,  0.700
 15720,  2.547,  9.461, 45.446,  5.140,  0.649
 15780,  2.541,  9.185, 43.782,  5.133,  0.649
 15840,  2.560,  9.539, 45.661,  5.431,  0.802
 15900,  2.533,  9.127, 44.234,  5.259,  0.728
 15960,  2.500,  9.434, 44.629,  5.232,  0.696
 16020, -9999.000, -9999.000, -9999.000, -9999.000, -9999.000
 16080,  2.420,  8.186, 37.729,  4.699,  0.626
 16140,  2.436,  8.719, 40.437,  5.116,  0.631
 16200,  2.462,  8.790, 41.092,  5.166,  0.726
 16260,  2.439,  8.608, 41.663,  5.133,  0.661
 16320,  2.437,  8.687, 42.647,  5.111,  0.742
 16380,  2.439,  8.668, 41.540,  5.148,  0.721
 16440,  2.416,  8.837, 42.551,  5.275,  0.735
 16500,  2.383,  8.723, 42.298,  5.205,  0.712
 16560,  2.350,  8.483, 41.393,  5.129,  0.709
 16620,  2.408,  8.705, 42.396,  5.338,  0.708
 16680,  2.448,  8.775, 42.547,  5.169,  0.744
 16740,  2.410,  9.264, 41.635,  5.080,  0.769
 16800,  2.299,  8.967, 40.758,  5.166,  0.787
 16860,  2.345,  8.843, 40.155,  5.364,  0.701
 16920,  2.327,  8.266, 37.988,  5.509,  0.692
 16980,  2.258,  8.418, 37.903,  5.441,  0.655
 17040,  2.308,  8.673, 39.308,  5.612,  0.620
 17100,  2.288,  8.392, 39.055,  5.631,  0.727
 17160,  2.283,  7.914, 37.478,  5.477,  0.783
 17220,  2.290,  8.263, 36.120,  5.600,  0.787
 17280,  2.262,  7.812, 36.467,  5.469,  0.750
 17340,  2.273,  8.148, 36.879,  5.405,  0.822
 17400,  2.298,  8.148, 37.385,  5.507,  0.744
 17460,  2.264,  8.278, 37.392,  5.349,  0.747
 17520,  2.316,  8.442, 38.064,  5.609,  0.731
 17580,  2.373,  8.578, 39.323,  5.583,  0.792
 17640,  2.307,  8.953, 38.774,  5.528,  0.601
 17700,  2.332,  8.805, 39.485,  5.757,  0.720
 17760,  2.331,  8.423, 39.112,  5.591,  0.704
 17820,  2.419,  8.782, 39.545,  5.537,  0.814
 17880, -9999.000, -9999.000, -9999.000, -9999.000, -9999.000
 17940,  2.373,  9.024, 38.210,  5.492,  0.880
 18000,  2.474,  8.828, 39.681,  5.738,  0.892
 18060,  2.459,  9.386, 40.570,  5.820,  0.861
 18120,  2.520,  9.126, 41.351,  5.867,  0.892
 18180,  2.485,  8.872, 40.752,  5.939,  0.760
 18240,  2.574,  9.099, 40.913,  5.945,  0.884
 18300,  2.593,  9.324, 42.217,  5.950,  0.883
 18360,  2.573,  9.355, 41.938,  6.128,  0.816
 18420,  2.571,  9.279, 41.287,  5.950,  0.808
 18480,  2.621,  9.699, 41.420,  6.213,  0.828
 18540,  2.604,  9.575, 42.531,  6.480,  0.892
 18600,  2.562,  9.229, 41.386,  6.180,  0.743
 18660,  2.568,  9.240, 41.303,  6.150,  0.763
 18720,  2.503,  9.156, 41.085,  6.431,  0.784
 18780,  2.528,  9.023, 40.758,  6.310,  0.805
 18840,  2.489,  9.326, 39.178,  5.998,  0.768
 18900,  2.508,  9.282, 38.536,  6.094,  0.758
 18960,  2.546,  9.718, 38.606,  6.112,  0.715
 19020,  2.452,  9.382, 37.376,  5.913,  0.742
 19080,  2.524,  9.338, 37.900,  6.115,  0.689
 19140,  2.546,  9.369, 38.408,  6.426,  0.768
 19200,  2.528,  9.502, 37.584,  6.671,  0.781
 19260,  2.611,  9.328, 37.675,  6.855,  0.925
 19320,  2.649,  9.936, 38.635,  7.553,  0.884
 19380,  2.755, 10.465, 38.607,  7.729,  0.904
 19440,  3.332, 12.632, 42.515, 11.789,  1.395
 19500,  3.482, 12.857, 45.018, 13.495,  1.901
 19560,  3.440, 12.451, 44.898, 12.583,  2.074
 19620,  3.416, 12.307, 44.139, 11.827,  2.282
 19680,  3.283, 11.483, 43.604, 10.936,  2.289
 19740, -9999.000, -9999.000, -9999.000, -9999.000, -9999.000
 19800,  3.027, 10.320, 34.990,  8.910,  1.918
 19860,  3.040,  9.743, 36.207,  8.872,  2.006
 19920,  3.042,  9.876, 37.146,  8.587,  2.160
 19980,  3.029,  9.867, 37.716,  8.695,  2.203
 20040,  3.025,  9.268, 36.660,  8.219,  2.060
 20100,  3.027,  9.441, 36.938,  8.021,  2.214
 20160,  3.040,  9.010, 36.167,  7.945,  2.033
 20220,  2.965,  9.427, 37.638,  7.796,  2.079
 20280,  2.966,  9.036, 36.832,  7.838,  2.092
 20340,  2.910,  9.163, 36.473,  7.695,  2.218
 20400,  2.926,  8.928, 35.752,  7.443,  2.100
 20460,  2.893,  8.811, 36.103,  7.716,  2.080
 20520,  2.951,  8.868, 35.359,  7.523,  2.250
 20580,  2.924,  8.397, 35.624,  7.324,  2.171
 20640,  2.906,  8.214, 35.465,  7.316,  2.132
 20700,  2.906,  8.551, 36.422,  7.469,  2.100
 20760,  2.885,  8.439, 34.675,  7.040,  2.049
 20820,  2.911,  7.695, 34.809,  6.924,  2.160
 20880,  2.829,  7.586, 34.356,  6.990,  2.143
 20940,  2.874,  8.228, 34.584,  6.914,  2.155
 21000,  2.963,  7.992, 35.425,  7.107,  2.238
 21060,  2.934,  7.936, 35.064,  7.007,  2.216
 21120,  2.953,  8.216, 35.083,  7.482,  2.244
 21180,  3.094,  8.371, 35.515,  8.044,  2.251
 21240,  3.163,  8.619, 35.332,  8.457,  2.348
 21300,  3.155,  8.731, 35.819,  8.442,  2.234
 21360,  3.197,  8.574, 36.020,  8.837,  2.347
 21420,  3.261,  8.675, 36.368,  9.091,  2.463
 21480,  3.235,  8.852, 36.613,  8.754,  2.626
 21540,  3.157,  8.965, 34.826,  8.674,  2.296
 21600,  3.137,  8.548, 34.436,  8.993,  2.418
 21660,  3.242,  8.169, 34.825,  8.929,  2.573
 21720,  3.242,  8.639, 35.863,  8.702,  2.537
 21780,  3.292,  8.918, 35.083,  9.072,  2.433
 21840,  3.347,  8.958, 36.371,  9.590,  2.625
 21900,  3.376,  8.980, 38.391,  9.635,  2.802
 21960,  3.362,  9.234, 38.395,  9.828,  2.774
 22020,  3.328,  8.741, 37.687,  9.720,  2.753
 22080,  3.292,  8.904, 37.266,  9.910,  2.649
 22140,  3.263,  9.012, 37.592, 10.006,  2.474
 22200,  3.395,  8.875, 37.657, 10.202,  2.651
 22260,  3.488,  9.303, 37.267, 10.724,  2.577
 22320,  3.417,  8.996, 38.070, 10.645,  2.570
 22380,  3.370,  9.175, 37.661, 10.237,  2.590
 22440,  3.446,  9.337, 36.910, 10.605,  2.499
 22500,  3.575,  9.123, 39.258, 10.772,  2.641
 22560,  3.650,  9.598, 38.379, 11.645,  2.814
 22620,  3.641,  9.764, 37.757, 11.903,  2.649
 22680,  3.664,  9.543, 37.586, 11.565,  2.600
 22740,  3.685,  9.398, 37.572, 12.045,  2.705
 22800,  3.640,  9.659, 38.204, 12.025,  2.739
 22860,  3.699,  9.376, 37.931, 11.886,  2.623
 22920,  3.752,  9.400, 38.125, 12.167,  2.655
 22980,  3.600,  9.129, 36.557, 11.135,  2.311
 23040,  3.637,  9.214, 36.620, 11.409,  2.569
 23100,  3.535,  9.607, 36.908, 11.064,  2.544
 23160,  3.596,  9.377, 36.915, 11.298,  2.391
 23220,  3.624,  8.771, 36.211, 11.375,  2.399
 23280,  3.552,  8.764, 36.017, 10.829,  2.263
 23340,  3.470,  9.051, 36.783, 10.856,  2.187
 23400, -9999.000, -9999.000, -9999.000, -9999.000, -9999.000
 23460,  3.234,  8.299, 31.251,  9.748,  1.748
 23520,  3.355,  8.392, 31.772, 10.218,  1.729
 23580,  3.402,  8.647, 33.565, 10.130,  1.695
 23640,  3.302,  8.646, 33.472,  9.902,  1.722
 23700,  3.326,  8.300, 33.191,  9.966,  1.659
 23760,  3.340,  8.203, 32.915,  9.910,  1.565
 23820,  3.287,  8.384, 32.388,  9.996,  1.538
 23880,  3.314,  8.123, 32.175,  9.761,  1.346
 23940,  3.377,  8.157, 33.037,  9.872,  1.465
 24000,  3.297,  8.342, 32.229,  9.899,  1.476
 24060,  3.321,  8.406, 32.716,  9.861,  1.554
 24120,  3.323,  7.948, 32.694,  9.840,  1.542
 24180,  3.259,  8.194, 32.394,  9.682,  1.408
 24240,  3.354,  8.072, 32.368,  9.897,  1.549
 24300,  3.345,  8.197, 33.898,  9.907,  1.492
 24360,  3.271,  8.249, 33.435,  9.605,  1.604
 24420,  3.330,  8.021, 34.614,  9.673,  1.622
 24480,  3.337,  7.924, 32.996,  9.595,  1.553
 24540,  3.338,  8.079, 32.345,  9.605,  1.431
 24600,  3.296,  7.617, 33.249,  9.384,  1.561
 24660,  3.261,  7.919, 32.911,  9.508,  1.523
 24720,  3.308,  8.022, 33.323,  9.820,  1.506
 24780,  3.345,  7.637, 33.448,  9.686,  1.478
 24840,  3.354,  7.735, 33.455,  9.737,  1.584
 24900,  3.316,  8.025, 33.721,  9.677,  1.631
 24960,  3.357,  7.899, 34.311,  9.777,  1.669
 25020,  3.290,  7.492, 31.755,  9.415,  1.499
 25080,  3.276,  7.808, 32.244,  9.492,  1.641
 25140,  3.272,  7.887, 34.164,  9.153,  1.507
 25200,  3.223,  7.609, 32.567,  9.117,  1.590
 25260, -9999.000, -9999.000, -9999.000, -9999.000, -9999.000
 25320,  3.029,  7.424, 28.644,  8.424,  1.401
 25380,  3.085,  7.402, 29.306,  8.904,  1.546
 25440,  3.217,  7.171, 31.621,  9.194,  1.644
 25500,  3.174,  7.237, 30.745,  8.906,  1.643
 25560,  3.119,  7.462, 31.341,  8.863,  1.552
 25620,  3.143,  7.261, 30.652,  8.619,  1.528
 25680,  3.117,  7.183, 30.629,  8.671,  1.545
 25740,  3.176,  7.169, 30.593,  8.577,  1.641
 25800,  3.166,  6.918, 30.863,  8.519,  1.524
 25860,  3.072,  6.894, 31.983,  8.292,  1.493
 25920,  3.137,  7.190, 31.620,  8.378,  1.559
 25980,  3.164,  7.071, 31.002,  8.180,  1.638
 26040,  3.118,  7.102, 32.164,  8.222,  1.646
 26100,  3.092,  6.903, 31.494,  8.120,  1.620
 26160,  3.181,  7.337, 31.350,  8.248,  1.753
 26220,  3.153,  6.771, 31.983,  8.374,  1.622
 26280,  3.177,  6.994, 31.543,  7.950,  1.645
 26340,  3.220,  7.311, 33.412,  8.164,  1.772
 26400,  3.210,  6.919, 33.448,  8.081,  1.597
 26460,  3.120,  6.886, 32.004,  7.847,  1.514
 26520,  3.102,  6.190, 31.691,  7.232,  1.397
 26580,  3.143,  6.848, 31.149,  7.956,  1.708
 26640,  3.268,  7.268, 32.242,  8.098,  1.629
 26700,  3.396,  7.074, 32.426,  8.246,  1.760
 26760,  3.351,  7.436, 34.145,  8.483,  1.970
 26820,  3.218,  7.168, 32.332,  8.034,  1.778
 26880,  3.192,  7.039, 31.552,  8.224,  1.663
 26940,  3.311,  7.382, 34.636,  8.552,  1.928
 27000,  3.241,  7.225, 33.957,  8.363,  1.890
 27060,  3.222,  7.401, 33.404,  8.541,  1.814
 27120, -9999.000, -9999.000, -9999.000, -9999.000, -9999.000
 27180,  3.281,  7.204, 29.417,  9.446,  2.154
 27240,  3.262,  7.481, 31.744,  9.422,  2.137
 27300,  3.282,  7.080, 31.512,  8.937,  1.922
 27360,  3.235,  7.123, 32.002,  8.703,  2.192
 27420,  3.288,  7.206, 31.881,  8.915,  2.141
 27480,  3.344,  7.267, 32.851,  9.311,  2.288
 27540,  3.323,  7.315, 31.909,  8.820,  2.094
 27600,  3.321,  7.462, 34.089,  9.049,  2.220
 27660,  3.279,  7.156, 34.663,  8.767,  2.219
 27720,  3.220,  6.991, 33.920,  8.617,  2.043
 27780,  3.235,  7.278, 34.198,  8.651,  2.024
 27840,  3.195,  7.002, 33.655,  8.215,  1.925
 27900,  3.168,  7.004, 33.146,  8.299,  1.867
 27960,  3.153,  7.054, 33.352,  8.262,  1.951
 28020,  3.178,  6.895, 33.118,  8.021,  1.899
 28080,  3.079,  6.647, 32.854,  8.003,  1.878
 28140,  3.104,  6.710, 30.527,  7.856,  1.817
 28200,  3.066,  6.439, 30.556,  7.735,  1.781
 28260,  3.067,  6.704, 32.009,  7.845,  1.886
 28320,  3.101,  6.251, 31.341,  7.759,  1.829
 28380,  3.032,  6.031, 31.571,  7.532,  1.747
 28440,  2.978,  6.024, 30.089,  7.487,  1.777
 28500,  3.109,  6.420, 30.738,  7.902,  1.967
 28560,  3.101,  6.553, 31.339,  8.023,  1.978
 28620,  3.115,  6.462, 29.763,  7.776,  1.800
 28680,  3.120,  6.286, 30.781,  7.873,  1.938
 28740,  3.132,  6.129, 29.839,  8.012,  1.810
 28800,  3.146,  6.475, 30.019,  8.108,  1.967
 28860,  3.248,  6.682, 31.655,  8.244,  2.036
 28920,  3.162,  6.459, 30.551,  8.109,  1.895
 28980,  3.000,  6.186, 27.625,  7.698,  1.683
 29040,  3.022,  5.949, 29.204,  7.526,  1.762
 29100,  3.169,  6.136, 29.525,  8.014,  1.915
 29160,  3.130,  6.281, 29.906,  7.842,  1.793
 29220,  3.112,  6.037, 29.563,  7.601,  1.863
 29280,  3.056,  6.011, 29.638,  7.701,  1.789
 29340,  3.048,  6.010, 29.618,  7.248,  1.758
 29400,  3.105,  6.189, 30.331,  7.562,  1.699
 29460,  3.286,  6.437, 31.068,  8.293,  2.084
 29520,  3.283,  6.246, 30.473,  8.133,  1.993
 29580,  3.245,  6.104, 30.079,  8.022,  1.993
 29640,  3.262,  6.347, 30.826,  8.100,  2.078
 29700,  3.288,  6.237, 30.127,  8.121,  1.947
 29760,  3.172,  6.676, 30.722,  8.224,  1.994
 29820,  3.245,  6.020, 30.583,  8.042,  1.950
 29880,  3.197,  6.369, 30.814,  7.811,  2.005
 29940,  3.281,  6.392, 31.258,  8.012,  1.998
 30000,  3.303,  6.114, 31.265,  8.135,  2.003
 30060,  3.315,  6.193, 29.647,  8.359,  2.096
 30120,  3.314,  6.188, 30.943,  8.364,  2.066
 30180,  3.266,  6.297, 31.400,  8.380,  2.056
 30240,  3.193,  5.997, 29.369,  7.770,  1.898
 30300,  3.331,  6.416, 31.146,  8.280,  2.002
 30360,  3.409,  6.006, 30.755,  8.458,  2.007
 30420,  3.632,  6.699, 30.558,  9.473,  2.045
 30480,  3.605,  6.384, 30.542,  9.416,  2.105
 30540,  3.609,  6.519, 30.440,  9.402,  2.040
 30600,  3.733,  6.643, 31.055,  9.836,  2.142
 30660,  3.626,  6.595, 30.434,  9.404,  2.193
 30720,  4.145,  7.009, 30.089, 10.835,  2.301
 30780,  4.225,  8.218, 29.239, 11.887,  2.721
 30840,  4.360,  6.967, 28.090, 11.342,  2.104
 30900,  4.193,  7.013, 28.336, 10.949,  2.255
 30960,  4.411,  7.155, 30.720, 11.179,  2.318
 31020,  4.392,  7.174, 29.496, 11.123,  2.360
 31080,  4.598,  7.464, 30.623, 11.874,  2.317
 31140,  4.586,  7.346, 30.972, 12.042,  2.228
 31200,  4.509,  7.332, 31.718, 11.679,  2.315
 31260,  4.438,  7.319, 31.687, 11.366,  2.317
 31320,  4.423,  7.250, 32.125, 11.284,  2.303
 31380,  4.349,  7.158, 33.875, 11.163,  2.231
 31440,  4.338,  7.198, 33.218, 10.874,  2.149
 31500,  4.251,  7.053, 33.011, 10.760,  2.094
 31560,  4.194,  7.144, 33.166, 10.576,  1.911
 31620,  4.142,  6.947, 32.749, 10.755,  1.815
 31680,  4.196,  7.106, 32.423, 10.239,  1.878
 31740,  4.071,  6.905, 34.743, 10.160,  2.008
 31800,  4.089,  6.982, 33.123, 10.104,  1.829
 31860,  4.006,  6.824, 33.141,  9.861,  1.849
 31920,  3.904,  6.970, 33.451,  9.571,  1.787
 31980,  3.953,  6.787, 33.963,  9.701,  1.823
 32040,  3.934,  6.943, 34.053,  9.597,  1.861
 32100,  3.848,  6.910, 32.510,  9.492,  1.716
 32160,  3.963,  6.578, 33.941,  9.601,  1.722
 32220,  3.951,  6.811, 35.791,  9.619,  1.736
 32280,  3.944,  6.880, 35.440,  9.703,  1.791
 32340,  3.972,  6.907, 35.576,  9.733,  1.726
 32400,  3.934,  6.764, 34.885,  9.478,  1.806
 32460,  4.005,  6.831, 35.311,  9.746,  1.542
 32520,  3.923,  6.901, 35.873,  9.512,  1.714
 32580,  3.830,  6.505, 34.546,  9.511,  1.617
 32640,  3.676,  6.918, 34.699,  9.465,  1.895
 32700,  3.797,  6.531, 33.315,  9.305,  1.659
 32760,  3.937,  6.466, 33.987,  9.293,  1.550
 32820,  3.872,  6.695, 34.873,  9.314,  1.716
 32880,  3.917,  6.842, 35.260,  9.394,  1.549
 32940,  3.891,  6.393, 34.962,  9.257,  1.466
 33000,  3.816,  6.613, 35.490,  9.332,  1.565
 33060,  3.855,  6.326, 33.764,  9.049,  1.535
 33120,  3.900,  6.710, 36.257,  9.409,  1.488
 33180,  3.975,  6.207, 35.486,  9.433,  1.471
 33240,  4.054,  6.225, 35.837,  9.637,  1.546
 33300,  3.998,  6.745, 37.713,  9.430,  1.494
 33360,  4.054,  6.526, 36.976,  9.551,  1.351
 33420,  3.935,  6.374, 36.077,  9.166,  1.506
 33480,  3.961,  6.084, 36.646,  9.255,  1.550
 33540,  3.901,  6.047, 35.849,  8.996,  1.440
 33600,  3.810,  6.154, 35.976,  9.201,  1.419
 33660,  3.830,  5.969, 34.804,  9.092,  1.443
 33720,  3.767,  5.634, 33.911,  8.719,  1.435
 33780,  3.753,  6.195, 35.789,  8.760,  1.386
 33840,  3.799,  5.921, 34.316,  8.722,  1.478
 33900,  3.736,  6.014, 35.480,  8.851,  1.448
 33960,  3.691,  6.084, 34.279,  8.697,  1.489
 34020,  3.760,  5.936, 34.067,  8.723,  1.512
 34080,  3.657,  5.812, 34.618,  8.203,  1.523
 34140,  3.638,  5.677, 32.719,  8.285,  1.543
 34200,  3.680,  5.992, 32.462,  8.664,  1.548
 34260,  3.647,  5.825, 32.388,  8.294,  1.558
 34320,  3.609,  5.593, 31.538,  8.199,  1.360
 34380,  3.728,  5.927, 33.179,  8.845,  1.651
 34440,  3.775,  6.218, 32.363,  8.935,  1.772
 34500, -9999.000, -9999.000, -9999.000, -9999.000, -9999.000
 34560,  3.512,  5.465, 27.340,  7.717,  1.350
 34620,  3.510,  5.541, 28.222,  7.911,  1.350
 34680,  3.602,  5.696, 28.994,  8.181,  1.455
 34740,  3.730,  5.815, 31.805,  8.584,  1.476
 34800,  3.784,  5.911, 32.392,  8.620,  1.581
 34860,  3.822,  5.487, 33.314,  8.882,  1.465
 34920,  3.804,  5.474, 34.299,  8.806,  1.375
 34980,  3.854,  6.086, 34.840,  8.918,  1.482
 35040,  3.865,  5.702, 35.129,  8.658,  1.421
 35100,  3.814,  5.597, 34.098,  8.244,  1.485
 35160,  3.628,  5.318, 34.193,  8.352,  1.380
 35220,  3.549,  5.400, 33.014,  7.994,  1.596
 35280,  3.614,  5.496, 32.945,  8.051,  1.718
 35340,  3.574,  5.233, 32.349,  7.824,  1.699
 35400,  3.648,  5.480, 32.468,  8.088,  1.689
 35460,  3.622,  5.209, 32.176,  7.957,  1.560
 35520,  3.570,  5.168, 32.008,  7.655,  1.545
 35580,  3.638,  5.194, 30.820,  8.112,  1.705
 35640,  3.565,  5.142, 30.165,  7.759,  1.464
 35700,  3.649,  5.166, 31.969,  8.214,  1.626
 35760,  3.628,  5.250, 32.406,  7.933,  1.570
 35820,  3.569,  5.020, 30.754,  7.649,  1.593
 35880,  3.628,  5.312, 30.825,  7.993,  1.597
 35940,  3.629,  5.054, 31.307,  7.985,  1.672
 36000,  3.599,  5.050, 31.215,  7.848,  1.639
 36060,  3.564,  5.263, 29.341,  7.819,  1.594
 36120,  3.588,  5.196, 30.089,  7.618,  1.441
 36180,  3.657,  5.372, 30.757,  7.895,  1.701
 36240,  3.653,  5.474, 30.916,  8.095,  1.809
 36300,  3.620,  4.743, 29.598,  7.745,  1.457
 36360,  3.128,  4.594, 28.311,  6.469,  1.206
 36420,  3.464,  4.839, 26.491,  7.422,  1.493
 36480,  3.486,  5.066, 27.568,  7.509,  1.526
 36540,  3.524,  5.098, 27.987,  7.709,  1.627
 36600,  3.493,  4.803, 28.491,  7.399,  1.457
 36660,  3.490,  4.719, 29.908,  7.581,  1.595
 36720,  3.588,  4.848, 29.507,  7.773,  1.561
 36780,  3.518,  5.186, 29.139,  7.850,  1.603
 36840,  3.518,  4.996, 28.810,  7.551,  1.667
 36900,  3.627,  5.107, 28.952,  7.962,  1.571
 36960,  3.585,  5.088, 29.577,  7.742,  1.497
 37020,  3.395,  4.917, 29.388,  7.449,  1.551
 37080,  3.595,  4.870, 30.209,  7.639,  1.555
 37140,  3.628,  5.312, 29.235,  8.023,  1.481
 37200,  3.722,  5.312, 30.975,  8.056,  1.621
 37260,  3.740,  5.228, 30.922,  7.946,  1.484
 37320,  3.681,  5.112, 30.659,  7.875,  1.406
 37380,  3.685,  5.201, 29.931,  7.739,  1.529
 37440,  3.528,  5.179, 30.292,  7.681,  1.442
 37500,  3.729,  5.561, 31.922,  8.321,  1.668
 37560,  3.661,  5.132, 31.932,  8.044,  1.450
 37620,  3.790,  5.661, 32.120,  8.055,  1.603
 37680,  3.778,  5.477, 32.172,  8.223,  1.563
 37740,  3.758,  5.519, 31.317,  8.046,  1.433
 37800,  3.739,  5.425, 31.933,  7.815,  1.418
 37860,  3.635,  5.318, 32.548,  8.018,  1.496
 37920,  3.783,  5.810, 32.455,  8.195,  1.374
 37980,  3.767,  5.633, 32.931,  8.023,  1.371
 38040,  3.805,  5.797, 33.137,  8.301,  1.460
 38100,  3.841,  5.566, 32.388,  8.266,  1.415
 38160,  3.778,  5.600, 32.905,  8.009,  1.285
 38220,  3.727,  3.432, 28.297,  7.207,  1.128
 38280,  3.559,  4.886, 29.223,  7.375,  1.448
 38340,  3.507,  5.212, 30.831,  7.399,  1.546
 38400,  3.625,  5.504, 31.989,  7.898,  1.656
 38460,  3.593,  5.328, 30.968,  7.926,  1.769
 38520,  3.643,  5.530, 31.977,  7.871,  1.745
 38580,  3.664,  5.533, 31.266,  7.998,  1.688
 38640,  3.687,  5.077, 31.288,  7.710,  1.720
 38700,  3.493,  5.290, 31.978,  7.350,  1.742
 38760,  3.559,  5.406, 31.296,  7.873,  1.754
 38820,  3.735,  5.597, 32.798,  7.998,  1.910
 38880,  3.649,  5.347, 33.135,  7.993,  1.904
 38940,  3.704,  5.535, 31.510,  8.004,  1.911
 39000,  3.629,  5.331, 31.970,  8.080,  1.977
 39060,  3.548,  5.381, 31.525,  7.897,  1.862
 39120,  3.682,  5.434, 31.675,  7.784,  1.786
 39180,  3.863,  6.085, 33.453,  8.363,  1.862
 39240,  3.749,  5.599, 32.167,  7.859,  1.743
 39300,  3.714,  5.658, 32.908,  7.916,  1.784
 39360,  3.661,  5.203, 32.326,  7.885,  1.755
 39420,  3.601,  5.490, 31.163,  7.765,  1.701
 39480,  3.598,  5.238, 32.764,  7.558,  1.798
 39540,  3.567,  5.178, 31.982,  7.588,  1.791
 39600,  3.544,  5.404, 31.988,  7.692,  1.791
 39660,  3.582,  5.434, 32.046,  7.855,  1.857
 39720,  3.699,  5.540, 31.930,  8.055,  1.934
 39780,  3.753,  5.491, 31.563,  8.094,  1.999
 39840,  3.623,  5.359, 31.268,  7.888,  1.782
 39900,  3.589,  5.218, 32.182,  7.858,  1.781
 39960,  3.455,  5.378, 32.014,  7.735,  1.936
 40020,  3.553,  4.937, 31.489,  7.687,  1.782
 40080,  3.448,  5.279, 27.983,  7.549,  1.776
 40140,  3.574,  5.326, 29.364,  7.652,  1.901
 40200,  3.642,  5.796, 30.128,  7.940,  1.871
 40260,  3.634,  5.586, 32.066,  7.935,  1.944
 40320,  3.622,  5.334, 31.645,  7.985,  1.835
 40380,  3.589,  5.404, 30.987,  7.560,  1.865
 40440,  3.678,  5.527, 31.656,  7.904,  2.013
 40500,  3.739,  5.263, 31.249,  7.901,  1.928
 40560,  3.716,  5.068, 30.780,  7.849,  1.926
 40620,  3.759,  5.710, 32.220,  8.096,  2.076
 40680,  3.727,  5.510, 32.535,  8.092,  2.011
 40740,  3.710,  5.533, 31.959,  7.885,  1.957
 40800,  3.712,  5.631, 32.458,  8.026,  1.952
 40860,  3.898,  5.700, 31.192,  8.139,  1.964
 40920,  3.761,  5.258, 32.131,  7.876,  1.912
 40980,  3.691,  5.161, 33.733,  7.813,  1.858
 41040,  3.692,  5.427, 33.368,  7.939,  1.878
 41100,  3.608,  5.336, 32.406,  7.512,  1.853
 41160,  3.547,  5.302, 31.815,  7.637,  1.836
 41220,  3.668,  5.110, 30.525,  7.531,  1.846
 41280,  3.713,  5.289, 30.889,  7.799,  1.938
 41340,  3.641,  5.373, 32.385,  7.803,  1.875
 41400,  3.688,  5.316, 32.110,  7.925,  1.952
 41460,  3.866,  5.593, 31.019,  8.256,  2.116
 41520,  3.882,  5.516, 33.079,  8.243,  2.149
 41580,  3.874,  5.432, 31.857,  8.147,  1.957
 41640,  3.793,  5.224, 31.166,  8.112,  1.881
 41700,  3.792,  5.550, 33.465,  7.899,  1.936
 41760,  3.823,  5.732, 32.784,  7.867,  1.769
 41820,  3.870,  5.813, 31.534,  8.246,  1.681
 41880, -9999.000, -9999.000, -9999.000, -9999.000, -9999.000
 41940,  3.780,  5.198, 27.362,  7.409,  1.473
 42000,  3.709,  5.681, 30.028,  7.915,  1.538
 42060,  3.762,  5.551, 31.690,  8.063,  1.457
 42120,  3.855,  5.488, 32.007,  8.189,  1.621
 42180,  3.942,  5.837, 32.391,  8.447,  1.496
 42240,  3.833,  5.629, 32.366,  8.307,  1.510
 42300,  3.865,  5.713, 32.320,  8.215,  1.562
 42360,  3.866,  5.698, 32.186,  8.360,  1.459
 42420,  3.885,  5.450, 33.976,  8.122,  1.432
 42480,  3.756,  5.314, 33.934,  8.074,  1.500
 42540,  3.833,  5.650, 33.398,  8.274,  1.651
 42600,  3.839,  5.424, 33.371,  8.003,  1.645
 42660,  3.778,  5.441, 32.782,  8.167,  1.562
 42720,  3.839,  5.325, 32.165,  7.860,  1.591
 42780,  3.816,  5.489, 33.625,  8.063,  1.548
 42840,  3.871,  5.423, 32.998,  8.313,  1.610
 42900,  3.911,  5.610, 33.767,  8.028,  1.696
 42960,  3.794,  5.398, 33.299,  7.998,  1.680
 43020,  3.848,  5.563, 31.869,  7.736,  1.676
 43080,  3.789,  5.558, 32.752,  7.962,  1.538
 43140,  3.813,  5.409, 30.977,  7.890,  1.603
 43200,  3.788,  5.200, 31.797,  7.871,  1.484
 43260,  3.700,  5.157, 34.536,  7.811,  1.674
 43320,  3.842,  5.472, 32.856,  7.952,  1.618
 43380,  3.712,  5.267, 32.311,  7.732,  1.568
 43440,  3.738,  5.483, 32.653,  7.805,  1.648
 43500,  3.708,  5.452, 31.520,  7.828,  1.518
 43560,  3.752,  5.246, 31.619,  7.697,  1.612
 43620,  3.713,  5.287, 32.418,  7.718,  1.633
 43680,  3.852,  5.350, 31.873,  7.839,  1.680
 43740, -9999.000, -9999.000, -9999.000, -9999.000, -9999.000
 43800,  3.658,  4.759, 29.407,  7.601,  1.734
 43860,  3.765,  5.399, 30.501,  7.628,  1.756
 43920,  3.647,  5.119, 30.890,  7.579,  1.775
 43980,  3.678,  5.123, 31.374,  7.794,  1.817
 44040,  3.695,  5.150, 31.521,  7.877,  1.770
 44100,  3.787,  4.992, 31.947,  7.764,  1.794
 44160,  3.882,  5.434, 32.593,  8.198,  1.964
 44220,  3.889,  5.315, 32.328,  8.151,  1.924
 44280,  3.803,  5.157, 31.527,  7.890,  1.907
 44340,  3.799,  5.604, 32.592,  8.062,  1.912
 44400,  3.790,  5.292, 32.620,  8.173,  1.834
 44460,  3.771,  5.115, 31.981,  7.819,  1.866
 44520,  3.703,  4.996, 32.181,  7.761,  1.884
 44580,  3.727,  5.224, 31.446,  7.845,  1.857
 44640,  3.761,  5.029, 31.468,  7.933,  1.621
 44700,  3.708,  5.219, 32.331,  7.817,  1.875
 44760,  3.653,  5.049, 32.615,  7.718,  1.905
 44820,  3.748,  5.019, 32.094,  7.829,  1.844
 44880,  3.758,  5.132, 32.121,  7.835,  1.878
 44940,  3.861,  5.031, 31.655,  8.024,  1.694
 45000,  3.875,  5.227, 31.642,  8.259,  1.812
 45060,  3.911,  5.274, 33.393,  8.438,  1.989
 45120,  3.890,  5.210, 32.963,  8.295,  1.900
 45180,  3.922,  5.407, 33.042,  8.282,  1.914
 45240,  3.884,  5.772, 33.039,  8.511,  1.892
 45300,  3.890,  5.333, 32.089,  8.249,  1.793
 45360,  3.893,  5.363, 33.277,  8.320,  1.932
 45420,  3.954,  5.293, 33.254,  8.409,  1.828
 45480,  3.942,  5.521, 33.306,  8.392,  1.876
 45540,  3.993,  5.001, 32.933,  8.523,  1.774
 45600, -9999.000, -9999.000, -9999.000, -9999.000, -9999.000
 45660,  3.849,  5.298, 28.543,  8.025,  1.620
 45720,  3.872,  5.034, 30.054,  8.240,  1.633
 45780,  3.965,  5.375, 32.625,  8.306,  1.724
 45840,  3.921,  4.899, 33.331,  8.121,  1.748
 45900,  3.839,  5.130, 32.036,  7.909,  1.715
 45960,  3.866,  5.085, 32.565,  7.913,  1.678
 46020,  3.879,  4.811, 32.168,  8.041,  1.522
 46080,  3.827,  4.891, 31.876,  7.927,  1.596
 46140,  3.840,  5.097, 33.196,  7.824,  1.631
 46200,  3.791,  4.984, 32.125,  7.624,  1.550
 46260,  3.719,  4.734, 31.798,  7.787,  1.532
 46320,  3.729,  4.954, 31.780,  7.709,  1.551
 46380,  3.791,  4.868, 30.571,  7.726,  1.439
 46440,  3.834,  4.712, 30.329,  7.646,  1.524
 46500,  3.857,  4.976, 31.757,  7.849,  1.435
 46560,  3.822,  5.125, 31.616,  7.971,  1.541
 46620,  3.820,  5.352, 30.812,  7.824,  1.351
 46680,  3.926,  5.042, 32.090,  7.963,  1.234
 46740,  3.936,  5.527, 30.533,  7.992,  1.249
 46800,  3.855,  5.637, 30.295,  8.283,  1.526
 46860,  4.148,  6.423, 34.359,  9.129,  2.014
 46920,  4.310,  6.576, 36.424,  9.302,  2.306
 46980,  4.168,  6.076, 36.057,  8.917,  2.008
 47040,  4.046,  5.650, 34.281,  8.557,  1.657
 47100,  3.944,  5.697, 33.410,  8.405,  1.649
 47160,  4.002,  5.524, 32.600,  8.109,  1.485
 47220,  3.877,  5.318, 32.747,  7.949,  1.521
 47280,  3.953,  5.135, 32.271,  8.026,  1.296
 47340,  3.970,  5.253, 31.024,  7.878,  1.298
 47400,  3.992,  5.035, 31.059,  7.648,  1.350
 47460,  3.746,  5.342, 26.644,  7.211,  1.199
 47520,  3.872,  4.641, 27.253,  7.421,  1.142
 47580,  3.891,  5.028, 29.906,  7.322,  1.229
 47640,  3.943,  5.095, 28.648,  7.114,  1.268
 47700,  3.928,  4.902, 29.033,  7.366,  1.168
 47760,  3.979,  4.700, 29.450,  7.290,  1.191
 47820,  3.886,  4.874, 28.359,  7.123,  1.166
 47880,  3.941,  4.843, 28.957,  7.333,  1.145
 47940,  4.023,  4.925, 29.416,  7.369,  1.254
 48000,  4.018,  4.939, 29.630,  7.367,  1.204
 48060,  3.938,  4.885, 28.524,  7.217,  1.248
 48120,  3.976,  4.925, 28.993,  7.054,  1.137
 48180,  3.980,  4.720, 29.532,  7.146,  1.231
 48240,  4.003,  4.995, 29.856,  7.193,  1.250
 48300,  3.962,  4.966, 28.731,  6.789,  1.196
 48360,  4.015,  5.482, 28.983,  6.913,  1.255
 48420,  3.889,  4.948, 30.536,  6.893,  1.201
 48480,  4.039,  5.192, 28.156,  7.263,  1.121
 48540,  4.283,  5.722, 28.434,  7.199,  1.250
 48600,  4.178,  5.567, 27.519,  7.410,  1.333
 48660,  4.153,  5.680, 27.979,  7.415,  1.249
 48720,  4.169,  5.324, 27.739,  7.160,  1.448
 48780,  4.318,  5.700, 28.604,  7.196,  1.367
 48840,  4.185,  5.680, 29.120,  7.150,  1.387
 48900,  4.246,  6.055, 29.051,  6.997,  1.395
 48960,  4.186,  5.936, 29.276,  7.075,  1.560
 49020,  4.332,  6.186, 27.950,  7.110,  1.394
 49080,  4.381,  6.732, 28.701,  7.230,  1.374
 49140,  4.500,  6.758, 28.886,  7.309,  1.402
 49200,  4.561,  7.192, 28.804,  7.390,  1.589
 49260, -9999.000, -9999.000, -9999.000, -9999.000, -9999.000
 49320,  4.394,  7.619, 25.432,  6.873,  1.520
 49380,  4.543,  7.396, 26.113,  7.242,  1.510
 49440,  4.654,  8.047, 27.829,  7.496,  1.553
 49500,  4.652,  7.967, 29.240,  7.499,  1.608
 49560,  4.869,  8.157, 29.282,  7.693,  1.727
 49620,  4.828,  7.983, 28.887,  7.841,  1.685
 49680,  4.851,  7.458, 28.379,  7.886,  1.704
 49740,  4.742,  7.564, 30.194,  7.786,  1.889
 49800,  4.738,  7.338, 29.245,  7.706,  1.846
 49860,  4.743,  7.189, 28.449,  7.977,  1.836
 49920,  4.629,  6.791, 28.532,  7.760,  1.831
 49980,  4.690,  6.912, 27.897,  7.844,  1.812
 50040,  4.704,  7.234, 28.800,  7.862,  1.950
 50100,  4.808,  7.367, 26.861,  8.018,  1.960
 50160,  4.861,  7.364, 28.907,  8.025,  1.896
 50220,  4.779,  7.198, 28.198,  7.909,  1.968
 50280,  4.807,  7.320, 27.599,  7.979,  1.954
 50340,  4.755,  7.932, 30.046,  8.200,  2.192
 50400,  4.650,  7.687, 28.341,  7.831,  2.055
 50460,  4.726,  7.839, 27.913,  7.721,  2.088
 50520,  4.804,  8.272, 27.890,  7.925,  2.023
 50580,  4.864,  8.072, 28.930,  8.139,  2.065
 50640,  4.874,  8.833, 28.711,  7.819,  2.030
 50700,  5.057,  9.007, 28.682,  8.099,  2.159
 50760,  5.197,  9.388, 29.100,  8.286,  2.102
 50820,  5.151,  9.682, 30.390,  8.229,  2.070
 50880,  5.126,  9.629, 30.699,  8.278,  2.197
 50940,  4.930,  9.865, 29.546,  7.992,  2.202
 51000,  4.991, 10.692, 30.177,  7.997,  2.226
 51060,  4.948, 10.832, 28.649,  7.950,  2.034
 51120, -9999.000, -9999.000, -9999.000, -9999.000, -9999.000
 51180,  5.054, 11.044, 29.361,  7.883,  2.082
 51240,  5.095, 11.216, 29.379,  7.894,  2.087
 51300,  5.111, 11.463, 29.048,  7.696,  2.191
 51360,  5.275, 11.603, 30.467,  7.969,  2.301
 51420,  5.215, 11.571, 29.087,  7.983,  2.224
 51480,  5.095, 11.692, 29.761,  7.708,  2.252
 51540,  5.155, 11.487, 29.334,  7.811,  2.199
 51600,  5.228, 12.189, 30.178,  7.700,  2.239
 51660,  5.285, 12.661, 29.423,  7.864,  2.261
 51720,  5.389, 11.954, 28.770,  7.776,  2.180
 51780,  5.440, 11.982, 29.470,  7.932,  2.177
 51840,  5.571, 12.417, 29.741,  7.855,  2.355
 51900,  5.503, 12.098, 28.500,  7.678,  2.202
 51960,  5.549, 12.889, 27.464,  7.882,  2.140
 52020,  5.802, 13.157, 30.051,  8.076,  2.409
 52080,  5.989, 13.093, 29.285,  8.330,  2.278
 52140,  6.043, 13.779, 29.651,  8.356,  2.296
 52200,  5.968, 13.747, 30.390,  8.291,  2.271
 52260,  6.009, 15.088, 29.503,  8.414,  2.295
 52320,  6.229, 16.325, 30.601,  8.552,  2.339
 52380,  6.258, 16.204, 31.510,  8.398,  2.391
 52440,  6.331, 16.497, 32.228,  8.398,  2.242
 52500,  6.398, 16.834, 31.135,  8.412,  2.169
 52560,  6.455, 17.704, 30.976,  8.402,  2.171
 52620,  6.937, 20.750, 33.106,  8.456,  2.053
 52680,  7.038, 22.260, 33.998,  8.495,  2.070
 52740,  7.220, 22.663, 33.118,  8.639,  1.930
 52800,  7.203, 22.343, 35.046,  8.867,  2.082
 52860,  7.173, 22.856, 33.801,  8.673,  2.129
 52920,  7.263, 23.913, 32.838,  8.579,  2.010
 52980, -9999.000, -9999.000, -9999.000, -9999.000, -9999.000
 53040,  7.327, 23.044, 30.160,  8.303,  1.845
 53100,  7.507, 24.254, 31.741,  8.391,  1.922
 53160,  7.346, 20.674, 32.449,  8.928,  1.995
 53220,  7.430, 20.412, 30.852,  9.260,  1.935
 53280,  7.369, 19.662, 31.641,  9.035,  1.934
 53340,  7.451, 18.603, 31.883,  9.232,  2.002
 53400,  7.395, 18.945, 31.989,  9.482,  2.093
 53460,  7.440, 18.604, 30.876,  9.530,  2.133
 53520,  7.325, 17.312, 31.500,  9.416,  2.304
 53580,  7.502, 18.460, 28.580,  9.552,  2.330
 53640,  7.688, 22.253, 31.536,  9.275,  2.346
 53700,  7.890, 21.919, 31.894,  9.389,  2.542
 53760,  7.849, 20.645, 32.083,  9.494,  2.596
 53820,  7.964, 20.873, 31.891,  9.429,  3.028
 53880,  7.822, 19.255, 31.126,  9.249,  3.050
 53940,  7.916, 20.419, 30.630,  9.626,  3.172
 54000,  8.193, 24.000, 31.351,  9.594,  3.352
 54060,  8.216, 23.608, 30.696,  9.563,  3.073
 54120,  8.095, 22.069, 30.526,  9.664,  3.128
 54180,  8.061, 23.863, 32.069,  9.554,  3.100
 54240,  8.663, 27.805, 31.337,  9.662,  3.082
 54300,  8.783, 27.944, 32.759,  9.873,  2.898
 54360,  9.268, 35.229, 33.140,  9.934,  2.714
 54420,  9.326, 35.038, 33.300, 10.317,  2.369
 54480,  9.329, 34.688, 33.712,  9.974,  2.382
 54540,  9.443, 35.800, 32.763, 10.073,  2.336
 54600,  9.778, 36.092, 32.217,  9.829,  2.263
 54660,  9.910, 36.104, 34.109, 10.108,  2.509
 54720,  9.777, 36.081, 33.530, 10.055,  2.412
 54780,  9.610, 35.005, 33.264,  9.938,  2.254
 54840,  9.876, 35.257, 28.536,  8.919,  1.820
 54900, 10.106, 37.189, 30.040,  9.452,  2.170
 54960, 10.163, 38.543, 32.254,  9.551,  2.321
 55020, 10.565, 40.389, 31.520,  9.767,  2.479
 55080, 10.767, 41.449, 33.236,  9.652,  2.380
 55140, 10.725, 41.488, 32.846,  9.836,  2.319
 55200, 11.663, 49.408, 35.254,  9.961,  2.457
 55260, 12.309, 54.004, 35.424,  9.971,  2.393
 55320, 12.823, 57.550, 37.027, 10.274,  2.362
 55380, 12.613, 58.174, 36.844, 10.407,  2.549
 55440, 12.705, 59.025, 38.296, 10.455,  2.568
 55500, 13.043, 59.815, 36.440, 10.374,  2.474
 55560, 12.873, 59.710, 37.838, 10.212,  2.407
 55620, 12.910, 57.343, 39.250, 10.057,  2.569
 55680, 12.984, 57.394, 37.369, 10.127,  2.543
 55740, 13.270, 56.629, 37.296, 10.496,  2.378
 55800, 13.730, 57.955, 39.331, 10.169,  2.383
 55860, 13.672, 56.158, 36.667, 10.315,  2.125
 55920, 13.604, 52.498, 37.335, 10.246,  2.160
 55980, 13.376, 51.467, 37.136, 10.243,  2.014
 56040, 13.449, 51.340, 36.022, 10.124,  2.054
 56100, 13.613, 50.194, 36.854, 10.308,  1.895
 56160, 13.575, 50.120, 38.252, 10.123,  1.918
 56220, 13.727, 49.531, 36.052, 10.297,  1.894
 56280, 14.205, 52.151, 36.559, 10.193,  1.894
 56340, 14.029, 50.305, 37.202,  9.989,  1.934
 56400, 14.060, 49.769, 36.674, 10.002,  1.778
 56460, 14.225, 50.207, 36.897, 10.261,  1.942
 56520, 14.149, 48.712, 37.291, 10.316,  1.945
 56580, 14.315, 48.216, 36.451, 10.279,  1.776
 56640, 14.736, 48.686, 36.558,  9.997,  1.893
 56700, 14.758, 49.813, 27.948,  9.586,  1.713
 56760, 14.867, 52.995, 32.745,  9.970,  1.816
 56820, 15.386, 56.657, 34.893, 10.388,  1.829
 56880, 15.578, 56.717, 37.066, 10.302,  1.975
 56940, 15.113, 52.453, 36.552, 10.243,  1.774
 57000, 15.800, 58.739, 36.963, 10.555,  1.910
 57060, 16.518, 62.702, 36.681, 10.523,  2.092
 57120, 17.014, 65.413, 37.600, 10.747,  2.107
 57180, 17.706, 70.144, 38.208, 11.077,  2.224
 57240, 17.620, 68.177, 38.769, 10.919,  2.241
 57300, 18.385, 72.224, 37.897, 10.744,  2.290
 57360, 19.168, 75.542, 38.834, 11.241,  2.335
 57420, 19.111, 73.701, 38.990, 11.037,  2.168
 57480, 18.800, 71.065, 39.327, 11.237,  2.204
 57540, 18.210, 66.188, 38.641, 10.899,  2.213
 57600, 18.025, 62.242, 37.328, 10.858,  2.145
 57660, 17.575, 58.381, 37.060, 10.665,  2.142
 57720, 16.917, 52.875, 36.428, 10.594,  2.001
 57780, 16.688, 50.511, 36.081, 10.742,  2.058
 57840, 15.925, 47.266, 35.152, 10.388,  1.960
 57900, 17.313, 52.492, 34.582, 10.816,  2.039
 57960, 16.695, 50.368, 34.008, 10.434,  1.933
 58020, 17.654, 53.628, 35.739, 10.739,  2.117
 58080, 17.954, 53.453, 36.818, 10.729,  2.068
 58140, 18.208, 52.275, 35.044, 10.999,  2.010
 58200, 18.051, 50.886, 35.216, 10.711,  1.978
 58260, 18.101, 50.354, 35.427, 10.997,  1.880
 58320, 18.072, 50.131, 37.227, 11.081,  2.014
 58380, 18.617, 51.181, 35.886, 10.927,  2.014
 58440, 18.752, 51.608, 35.526, 11.262,  1.878
 58500, 18.042, 49.632, 38.790, 10.745,  1.760
 58560, 18.858, 51.874, 34.033, 10.655,  1.923
 58620, 18.941, 50.930, 34.139, 10.927,  1.896
 58680, 19.046, 49.796, 35.329, 10.894,  1.881
 58740, 19.355, 48.435, 36.342, 11.166,  1.971
 58800, 19.264, 47.981, 36.273, 10.971,  1.856
 58860, 18.995, 46.374, 36.614, 11.163,  1.869
 58920, 18.824, 47.057, 35.861, 10.794,  1.825
 58980, 19.431, 49.945, 36.295, 11.263,  1.852
 59040, 18.604, 46.955, 37.025, 11.194,  1.964
 59100, 17.082, 42.636, 34.493, 10.907,  1.790
 59160, 16.945, 41.297, 33.246, 10.409,  1.670
 59220, 17.555, 40.870, 33.275, 10.822,  1.735
 59280, 16.849, 38.160, 33.313, 10.510,  1.612
 59340, 14.676, 32.280, 31.684, 10.232,  1.497
 59400, 13.511, 27.509, 29.581,  9.777,  1.324
 59460, 13.046, 26.435, 29.674,  9.789,  1.330
 59520, 15.780, 34.179, 28.617, 10.457,  1.271
 59580, 17.670, 38.055, 33.803, 11.025,  1.630
 59640, 16.357, 33.643, 33.437, 10.562,  1.690
 59700, 17.842, 37.656, 33.241, 10.991,  1.647
 59760, 19.165, 40.092, 33.579, 11.592,  1.758
 59820, 18.171, 37.449, 34.760, 11.594,  1.586
 59880, 17.056, 35.028, 34.740, 11.123,  1.641
 59940, 17.006, 34.099, 33.744, 11.144,  1.559
 60000, 16.816, 32.874, 34.161, 11.160,  1.582
 60060, 14.425, 25.784, 32.917, 10.746,  1.578
 60120, 12.280, 18.981, 29.170, 10.020,  1.327
 60180, 12.048, 17.444, 29.088,  9.952,  1.266
 60240, 12.025, 17.634, 29.282,  9.817,  1.299
 60300, 12.226, 17.881, 28.178,  9.977,  1.302
 60360, -9999.000, -9999.000, -9999.000, -9999.000, -9999.000
 60420, 10.420, 13.791, 23.761,  8.948,  0.986
 60480, 10.147, 12.981, 23.909,  8.884,  1.109
 60540, 10.083, 12.410, 23.759,  8.926,  0.999
 60600,  9.921, 12.205, 23.940,  8.802,  0.946
 60660,  9.259,  9.874, 21.485,  8.753,  0.816
 60720,  8.691,  9.330, 22.784,  8.507,  0.840
 60780,  8.121,  7.884, 19.897,  7.939,  0.744
 60840,  7.949,  7.207, 20.685,  8.071,  0.739
 60900,  9.493, 11.816, 20.945,  8.360,  0.807
 60960, 11.983, 15.666, 28.990,  9.482,  1.221
 61020, 13.472, 16.509, 20.405,  9.913,  1.055
 61080, 14.150, 18.253, 23.839, 10.745,  1.145
 61140, 14.533, 17.790, 26.345, 10.598,  1.339
 61200, 14.681, 18.490, 27.038, 10.939,  1.263
 61260, 15.052, 18.671, 26.266, 10.634,  1.235
 61320, 15.626, 20.259, 27.494, 10.942,  1.334
 61380, 16.136, 21.383, 27.670, 10.997,  1.385
 61440, 16.437, 21.941, 28.416, 11.313,  1.389
 61500, 16.486, 21.990, 27.558, 11.269,  1.377
 61560, 16.176, 20.933, 27.446, 11.054,  1.358
 61620, 16.454, 21.547, 30.117, 10.970,  1.434
 61680, 16.529, 21.394, 29.112, 11.035,  1.357
 61740, 16.606, 22.249, 30.446, 11.115,  1.318
 61800, 16.692, 21.860, 30.015, 11.103,  1.426
 61860, 17.003, 21.766, 30.628, 11.257,  1.415
 61920, 16.908, 22.122, 30.960, 11.054,  1.334
 61980, 17.095, 22.079, 31.358, 10.966,  1.378
 62040, 17.231, 21.507, 30.389, 11.308,  1.333
 62100, 17.184, 22.148, 31.218, 11.201,  1.353
 62160, 17.502, 21.422, 30.475, 11.205,  1.204
 62220, -9999.000, -9999.000, -9999.000, -9999.000, -9999.000
 62280, 16.971, 22.123, 28.845, 11.064,  1.012
 62340, 17.004, 23.165, 31.189, 11.033,  1.174
 62400, 17.029, 23.503, 31.565, 10.990,  1.182
 62460, 17.092, 24.753, 31.770, 11.153,  1.168
 62520, 17.237, 25.332, 31.724, 11.181,  1.138
 62580, 17.278, 24.848, 32.835, 11.334,  1.122
 62640, 16.805, 24.045, 33.329, 11.243,  1.078
 62700, 17.510, 25.989, 33.205, 11.574,  1.159
 62760, 17.798, 25.668, 32.032, 11.215,  1.163
 62820, 18.070, 26.087, 31.854, 11.779,  1.237
 62880, 18.347, 26.298, 30.824, 11.766,  1.081
 62940, 18.082, 26.257, 32.964, 11.581,  1.260
 63000, 17.583, 25.256, 32.699, 11.481,  1.218
 63060, 17.367, 24.895, 33.938, 11.424,  1.162
 63120, 17.592, 24.913, 32.291, 11.199,  1.137
 63180, 18.208, 25.791, 33.217, 11.406,  1.137
 63240, 18.218, 26.376, 32.654, 11.374,  1.108
 63300, 18.208, 25.191, 34.901, 11.122,  1.103
 63360, 18.437, 24.131, 32.604, 11.469,  0.945
 63420, 18.289, 23.513, 35.761, 11.156,  0.978
 63480, 18.181, 23.505, 35.379, 10.943,  0.987
 63540, 18.362, 23.238, 34.397, 11.256,  0.914
 63600, 18.148, 22.290, 33.933, 11.060,  0.922
 63660, 18.067, 21.539, 34.681, 10.832,  0.903
 63720, 18.370, 21.878, 34.276, 11.017,  0.890
 63780, 18.378, 21.752, 34.323, 10.965,  0.766
 63840, 17.789, 20.979, 33.755, 10.823,  0.907
 63900, 18.117, 21.624, 32.584, 10.827,  0.825
 63960, 18.482, 20.885, 32.281, 11.100,  0.769
 64020, 18.455, 20.108, 32.475, 11.833,  0.798
 64080, -9999.000, -9999.000, -9999.000, -9999.000, -9999.000
 64140, 18.012, 19.886, 28.943, 10.722,  0.793
 64200, 18.353, 20.046, 30.245, 10.922,  0.707
 64260, 18.633, 20.459, 31.835, 11.308,  0.793
 64320, 18.735, 20.059, 30.472, 11.139,  0.808
 64380, 19.161, 20.510, 32.747, 11.304,  0.793
 64440, 19.257, 20.510, 32.987, 11.685,  0.766
 64500, 19.119, 20.777, 32.608, 11.385,  0.775
 64560, 19.250, 20.628, 31.937, 11.694,  0.774
 64620, 19.417, 22.011, 32.647, 11.737,  0.953
 64680, 18.900, 20.239, 31.944, 11.742,  0.779
 64740, 18.730, 20.155, 32.585, 11.228,  0.868
 64800, 18.349, 20.578, 32.061, 10.980,  0.863
 64860, 17.684, 19.152, 31.372, 10.534,  0.864
 64920, 17.550, 18.341, 32.702, 10.473,  0.762
 64980, 18.056, 18.297, 29.214, 10.757,  0.692
 65040, 18.488, 19.144, 29.984, 10.710,  0.744
 65100, 18.771, 21.328, 31.388, 11.332,  1.002
 65160, 19.036, 21.556, 31.165, 11.284,  0.870
 65220, 18.530, 20.435, 31.520, 11.144,  0.906
 65280, 18.191, 20.936, 32.639, 10.899,  0.886
 65340, 17.907, 20.905, 30.914, 11.357,  0.936
 65400, 15.410, 17.013, 25.365, 11.385,  0.877
 65460, 14.996, 18.717, 28.725, 11.743,  1.001
 65520, 14.456, 17.333, 27.360, 11.656,  0.902
 65580, 13.854, 17.128, 26.016, 11.474,  0.871
 65640, 13.761, 17.216, 25.746, 11.588,  1.041
 65700, 14.048, 15.424, 24.062, 11.422,  0.921
 65760, 13.909, 16.019, 24.851, 11.413,  0.925
 65820, 14.936, 14.217, 24.507, 11.373,  0.824
 65880, 15.155, 15.027, 23.969, 11.459,  0.928
 65940, 14.764, 14.085, 22.401, 11.431,  0.699
 66000, 14.769, 13.104, 23.458, 11.418,  0.809
 66060, 14.302, 12.888, 22.460, 11.644,  0.763
 66120, 14.122, 11.734, 21.998, 11.832,  0.893
 66180, 14.193, 11.920, 21.313, 11.676,  0.829
 66240, 14.909, 13.082, 23.828, 11.816,  0.852
 66300, 14.116, 12.500, 22.700, 11.495,  0.858
 66360, 14.399, 12.130, 22.782, 12.062,  0.949
 66420, 13.408, 12.790, 23.936, 11.488,  0.995
 66480, 12.451, 11.163, 21.833, 11.659,  0.900
 66540, 12.033, 11.038, 22.548, 11.904,  0.876
 66600, 11.826, 11.530, 21.431, 11.567,  0.915
 66660, 11.914, 12.188, 23.596, 11.688,  0.940
 66720, 11.898,  9.979, 21.629, 11.497,  0.789
 66780, 12.068, 10.400, 21.804, 11.396,  0.889
 66840, 11.911,  9.851, 22.360, 11.500,  0.817
 66900, 12.962,  9.680, 21.256, 11.423,  0.866
 66960, 12.513, 10.086, 22.714, 11.689,  0.868
 67020, 12.471,  9.700, 21.474, 11.470,  0.810
 67080, 12.341,  9.967, 22.594, 11.657,  0.911
 67140, 12.283, 10.015, 24.018, 11.576,  0.977
 67200, 12.341,  9.850, 21.938, 11.256,  0.799
 67260, 12.557,  9.677, 23.705, 11.683,  0.886
 67320, 12.556,  9.702, 22.479, 11.762,  0.777
 67380, 12.906,  8.970, 23.622, 11.745,  0.859
 67440, 12.849,  9.484, 24.074, 11.783,  0.877
 67500, 12.841,  9.306, 23.875, 11.345,  0.747
 67560, 11.822,  9.661, 23.126, 11.274,  0.758
 67620, 11.553, 10.215, 23.640, 11.107,  0.876
 67680, 11.254, 10.069, 23.400, 11.128,  0.772
 67740, -9999.000, -9999.000, -9999.000, -9999.000, -9999.000
 67800, 10.938,  9.284, 19.034, 10.347,  0.587
 67860, 10.936,  9.745, 23.022, 10.755,  0.643
 67920, 10.962,  9.233, 23.421, 10.676,  0.703
 67980, 11.014,  9.227, 23.244, 10.895,  0.601
 68040, 10.907,  9.132, 23.185, 11.136,  0.593
 68100, 11.085, 10.213, 24.167, 10.776,  0.771
 68160, 11.123, 10.193, 23.024, 11.154,  0.629
 68220, 11.068,  9.014, 24.424, 11.303,  0.715
 68280, 11.054,  7.859, 20.901, 11.076,  0.597
 68340, 11.088,  8.652, 23.710, 10.919,  0.754
 68400, 11.309,  8.979, 23.758, 11.254,  0.718
 68460, 11.203, 12.138, 24.382, 11.153,  0.689
 68520, 10.837, 11.510, 24.670, 10.779,  0.771
 68580, 10.667, 12.430, 25.956, 10.910,  0.800
 68640, 10.337, 11.846, 26.019, 10.476,  0.969
 68700,  9.784, 10.506, 26.145, 10.119,  0.911
 68760,  9.665,  9.180, 25.905, 10.143,  0.780
 68820,  9.802,  8.652, 25.837,  9.897,  0.774
 68880,  9.934,  9.020, 24.129, 10.125,  0.695
 68940,  9.856,  9.547, 25.215, 10.037,  0.762
 69000,  9.777,  9.718, 25.682,  9.941,  0.658
 69060,  9.371,  9.398, 24.646,  9.900,  0.739
 69120,  9.314,  9.892, 24.800, 10.128,  0.598
 69180,  9.267,  9.643, 25.520,  9.765,  0.584
 69240,  9.331,  9.003, 26.267,  9.981,  0.674
 69300,  9.293,  9.496, 26.163,  9.873,  0.601
 69360,  9.254,  9.652, 25.709,  9.825,  0.634
 69420,  9.228,  8.334, 24.020,  9.476,  0.487
 69480,  9.208,  7.919, 24.044,  9.770,  0.497
 69540,  9.088,  8.100, 24.489,  9.718,  0.566
 69600, -9999.000, -9999.000, -9999.000, -9999.000, -9999.000
 69660,  8.465,  7.642, 22.304,  9.049,  0.571
 69720,  8.573,  7.598, 21.177,  9.536,  0.430
 69780,  8.589,  7.557, 22.109,  9.893,  0.431
 69840,  8.549,  7.883, 23.804,  9.917,  0.405
 69900,  8.512,  5.234, 18.683,  9.783, -0.299
 69960,  7.888,  8.241, 20.791,  8.862,  0.458
 70020,  7.903,  8.241, 22.018,  8.911,  0.617
 70080,  7.599,  8.271, 24.062,  8.818,  0.577
 70140,  7.765,  7.565, 20.975,  8.921,  0.556
 70200,  7.814,  8.361, 23.386,  8.862,  0.414
 70260,  7.328,  7.972, 19.774,  8.520,  0.580
 70320,  7.317,  7.896, 19.740,  8.398,  0.559
 70380,  6.646,  7.025, 18.428,  7.891,  0.424
 70440,  6.618,  5.988, 18.443,  7.508,  0.445
 70500,  6.432,  5.622, 16.665,  7.683,  0.334
 70560,  6.830,  6.238, 14.933,  7.863,  0.295
 70620,  7.329,  7.905, 17.134,  7.969,  0.465
 70680,  7.362,  8.361, 19.283,  8.063,  0.556
 70740,  7.506,  7.439, 18.575,  8.312,  0.436
 70800,  7.966,  7.488, 19.737,  8.435,  0.400
 70860,  7.943,  7.006, 19.981,  8.479,  0.397
 70920,  8.171,  7.437, 20.840,  8.965,  0.392
 70980,  8.060,  7.360, 20.466,  8.876,  0.384
 71040,  8.195,  7.164, 22.891,  8.693,  0.450
 71100,  8.490,  7.522, 22.247,  9.239,  0.361
 71160,  8.259,  8.671, 21.517,  8.737,  0.443
 71220,  8.462,  9.000, 24.803,  8.989,  0.365
 71280,  8.372,  8.450, 26.786,  8.577,  0.411
 71340,  8.333,  8.251, 26.388,  8.678,  0.456
 71400,  9.490,  8.833, 32.300,  8.967,  0.476
 71460, -9999.000, -9999.000, -9999.000, -9999.000, -9999.000
 71520, 10.906, 11.091, 37.598,  9.585,  0.281
 71580, 11.294, 12.246, 45.949, 10.167,  0.371
 71640, 12.115, 12.502, 50.488, 10.780,  0.382
 71700, 12.220, 14.300, 55.397, 11.212,  0.402
 71760, 12.370, 13.479, 58.941, 10.934,  0.255
 71820, 12.850, 15.019, 65.210, 11.400,  0.297
 71880, 12.730, 15.319, 65.199, 11.324,  0.246
 71940, 12.188, 13.665, 63.373, 11.384,  0.115
 72000, 11.686, 11.159, 59.625, 10.757, -0.180
 72060, 12.170, 12.191, 66.227, 10.924, -0.073
 72120, 12.310, 12.119, 67.605, 10.958,  0.060
 72180, 12.249, 12.158, 71.352, 11.011, -0.045
 72240, 12.640, 13.214, 66.301, 10.917,  0.187
 72300, 12.506, 13.694, 73.680, 11.203,  0.423
 72360, 11.778, 13.597, 67.309, 10.555,  0.446
 72420, 11.250, 12.887, 68.645, 10.030,  0.428
 72480, 11.143, 12.247, 61.770,  9.726,  0.415
 72540, 11.238, 11.680, 63.407,  9.880,  0.390
 72600, 11.551, 12.162, 62.111, 10.210,  0.475
 72660, 12.020, 12.657, 63.637, 10.410,  0.300
 72720, 12.167, 12.762, 61.774, 10.569,  0.450
 72780, 11.924, 12.778, 63.812, 10.743,  0.282
 72840, 12.109, 12.885, 61.605, 10.657,  0.333
 72900, 11.536, 11.711, 61.733, 10.462,  0.374
 72960, 11.457, 11.242, 53.678, 10.256,  0.340
 73020, 10.769, 11.379, 59.692,  9.788,  0.353
 73080, 11.000, 10.625, 53.524, 10.071,  0.398
 73140, 10.492, 11.029, 52.344,  9.849,  0.413
 73200, 10.262, 10.779, 48.494,  9.516,  0.367
 73260, 10.295, 10.186, 52.159,  9.610,  0.357
 73320,  8.809,  8.392, 34.678,  8.330,  0.446
 73380, 10.071,  9.221, 43.234,  8.907,  0.383
 73440,  9.918,  9.953, 49.807,  8.644,  0.390
 73500,  9.062,  9.515, 49.358,  8.200,  0.287
 73560,  9.131, 11.678, 54.924,  8.055,  0.300
 73620,  8.402, 10.363, 52.520,  8.094,  0.288
 73680,  7.990,  8.804, 47.394,  7.616,  0.187
 73740,  7.914, 10.939, 63.075,  7.458,  0.245
 73800,  7.375, 10.001, 69.013,  7.552,  0.235
 73860,  6.144, 10.723, 58.007,  5.761,  1.885
 73920,  6.276, 10.266, 54.643,  4.522,  2.492
 73980,  6.776, 10.507, 66.888,  6.117,  1.491
 74040,  5.890,  9.071, 65.559,  5.420,  3.830
 74100,  7.028, 16.342, 56.922,  6.572,  4.424
 74160,  6.191, 21.723, 73.564,  4.836,  2.434
 74220,  5.353, 17.133, 89.178,  4.088,  3.308
 74280,  6.033, 19.963, 71.452,  6.741,  2.633
 74340,  5.606,  8.756, 58.608,  5.354,  0.068
 74400,  5.855,  9.057, 60.315,  6.243,  0.067
 74460,  5.874,  9.318, 67.823,  6.360,  0.143
 74520,  5.842,  9.148, 64.890,  6.588,  0.095
 74580,  5.268,  7.221, 55.257,  6.306,  0.118
 74640,  4.960,  6.386, 44.987,  6.012,  0.067
 74700,  5.276,  7.656, 53.892,  6.420,  0.069
 74760,  5.462,  8.655, 58.719,  6.613,  0.053
 74820,  5.273,  8.017, 57.232,  6.607,  0.219
 74880,  5.121,  7.855, 54.882,  6.512,  0.109
 74940,  5.188,  8.120, 56.202,  6.609,  0.106
 75000,  5.253,  8.232, 54.733,  6.412,  0.069
 75060,  4.882,  7.889, 55.689,  6.346,  0.142
 75120,  4.686,  7.696, 54.842,  6.408,  0.116
 75180,  4.412,  6.953, 42.743,  5.719,  0.059
 75240,  4.829,  7.527, 43.747,  5.974,  0.080
 75300,  5.339,  8.477, 59.728,  6.592,  0.154
 75360,  5.250,  8.414, 58.322,  6.331,  0.081
 75420,  5.091,  8.178, 60.798,  6.167,  0.127
 75480,  4.851,  7.624, 53.993,  5.808,  0.108
 75540,  4.835,  7.842, 55.899,  5.984,  0.128
 75600,  4.695,  7.285, 53.545,  5.777,  0.108
 75660,  4.664,  7.530, 55.370,  5.836,  0.102
 75720,  4.636,  7.321, 53.567,  5.663,  0.098
 75780,  4.739,  8.106, 60.718,  5.787,  0.229
 75840,  4.820,  8.572, 64.588,  5.742,  0.173
 75900,  4.509,  7.562, 60.332,  5.326,  0.081
 75960,  4.139,  7.037, 54.447,  5.128,  0.078
 76020,  4.329,  7.878, 56.958,  5.209,  0.157
 76080,  4.125,  7.154, 51.731,  4.870,  0.104
 76140,  3.928,  7.008, 53.591,  4.948,  0.103
 76200,  3.569,  5.838, 47.014,  4.580,  0.112
 76260,  3.123,  4.861, 33.622,  4.037,  0.112
 76320,  3.241,  5.406, 38.040,  4.063,  0.166
 76380,  3.560,  6.439, 40.122,  4.115,  0.090
 76440,  4.209,  7.043, 45.935,  4.498,  0.076
 76500,  3.513,  6.164, 43.070,  4.103,  0.144
 76560,  2.753,  4.212, 31.070,  3.491,  0.165
 76620,  2.790,  4.577, 26.245,  3.374,  0.205
 76680,  3.607,  4.615, 29.178,  3.856,  0.166
 76740,  3.753,  4.454, 30.876,  3.937,  0.203
 76800,  3.431,  4.672, 28.549,  3.747,  0.220
 76860,  2.902,  3.728, 22.024,  3.158,  0.141
 76920,  3.163,  4.125, 19.409,  3.404,  0.097
 76980,  2.796,  2.424, 19.205,  2.841,  0.263
 77040,  3.518,  3.749, 21.676,  3.683,  0.118
 77100,  3.764,  4.340, 27.588,  3.984,  0.208
 77160,  3.634,  4.712, 31.168,  3.943,  0.219
 77220,  3.440,  4.562, 27.685,  3.620,  0.147
 77280,  3.225,  4.048, 24.541,  3.496,  0.156
 77340,  3.206,  4.006, 22.649,  3.622,  0.157
 77400,  3.131,  2.442, 20.914,  2.294, -0.185
 77460,  3.368,  3.955, 23.638,  3.469,  0.027
 77520,  3.290,  4.013, 26.187,  3.734,  0.153
 77580,  3.161,  3.537, 26.273,  3.340,  0.027
 77640,  3.173,  4.064, 27.662,  3.582,  0.083
 77700,  2.811,  2.399, 23.538,  3.009, -0.199
 77760,  2.521,  1.896, 23.109,  3.069, -0.223
 77820,  2.060,  1.343, 16.702,  2.702, -0.268
 77880,  2.060,  1.375, 18.467,  2.651, -0.241
 77940,  2.206,  1.643, 16.246,  2.722, -0.073
 78000,  2.337,  2.528, 19.615,  3.128,  0.098
 78060,  3.955,  1.947, 27.030,  4.883,  1.099
 78120,  3.194,  3.000, 19.916,  4.294,  0.234
 78180,  4.095,  2.533, 37.586,  2.672,  0.051
 78240,  3.515,  4.043, 22.763,  0.919,  0.043
 78300,  3.419,  3.649, 23.935,  3.062,  0.101
 78360,  2.746,  3.414, 19.289,  2.556,  0.112
 78420,  1.977,  1.941, 15.398,  1.769,  0.076
 78480,  2.173,  1.875, 16.230,  2.125,  0.027
 78540,  2.057,  1.901, 16.172,  2.498,  0.101
 78600,  1.999,  1.290, 14.593,  2.632,  0.074
 78660,  2.169,  2.286, 15.223,  2.868,  0.334
 78720,  2.149,  2.170, 14.614,  2.882,  0.195
 78780,  2.315,  2.077, 14.595,  2.762,  0.048
 78840, -9999.000, -9999.000, -9999.000, -9999.000, -9999.000
 78900,  2.180,  2.175, 11.885,  2.999,  0.029
 78960,  2.139,  1.976, 10.499,  3.004, -0.017
 79020,  2.216,  2.606, 13.990,  3.106,  0.139
 79080,  2.217,  2.416, 14.060,  3.284,  0.112
 79140,  2.249,  2.249, 13.627,  3.080,  0.107
 79200,  2.358,  2.542, 14.328,  3.273,  0.131
 79260,  2.356,  2.714, 13.132,  3.180,  0.106
 79320,  2.372,  2.259, 13.361,  3.125,  0.131
 79380,  2.454,  2.264, 14.500,  3.285,  0.142
 79440,  2.392,  2.324, 15.374,  3.402,  0.097
 79500,  2.403,  2.590, 15.598,  3.534,  0.106
 79560,  2.480,  2.702, 16.351,  3.589,  0.156
 79620,  2.494,  2.760, 17.330,  3.481,  0.140
 79680,  2.533,  2.714, 15.503,  3.525,  0.162
 79740,  2.642,  3.075, 18.418,  3.546,  0.179
 79800,  2.691,  3.126, 18.741,  3.608,  0.073
 79860,  2.723,  3.218, 17.831,  3.627,  0.136
 79920,  2.781,  3.395, 19.785,  3.777,  0.135
 79980,  2.768,  3.857, 19.264,  3.555,  0.105
 80040,  2.593,  3.594, 20.144,  3.457,  0.088
 80100,  2.661,  3.228, 19.838,  3.654,  0.117
 80160,  2.653,  3.042, 20.330,  3.578,  0.210
 80220,  2.577,  3.174, 18.169,  3.442,  0.090
 80280,  2.408,  2.900, 17.236,  3.386,  0.114
 80340,  2.362,  3.201, 17.061,  3.299,  0.101
 80400,  2.155,  2.148, 16.270,  3.412,  0.124
 80460,  2.148,  2.512, 16.146,  3.382,  0.124
 80520,  2.203,  2.682, 16.349,  3.135,  0.189
 80580,  2.262,  2.651, 17.817,  3.394,  0.226
 80640,  2.251,  3.036, 19.105,  3.269,  0.124
 80700,  1.981,  0.802, 16.940,  3.124,  0.246
 80760,  2.078,  2.918, 18.869,  3.340,  0.147
 80820,  2.050,  2.918, 19.030,  3.065, -0.043
 80880,  2.105,  3.330, 19.981,  3.210,  0.175
 80940,  2.088,  3.409, 18.614,  3.324,  0.124
 81000,  2.064,  3.059, 18.409,  3.272,  0.252
 81060,  2.028,  2.762, 18.271,  3.287,  0.244
 81120,  1.985,  3.018, 18.076,  3.211,  0.073
 81180,  2.022,  2.943, 17.624,  3.259,  0.165
 81240,  2.025,  3.907, 19.751,  3.379,  0.159
 81300,  2.061,  4.034, 18.909,  3.202,  0.189
 81360,  1.994,  4.358, 19.612,  3.269,  0.292
 81420,  1.892,  4.068, 17.923,  3.005,  0.214
 81480,  1.869,  3.329, 16.067,  2.920,  0.132
 81540,  1.771,  3.210, 16.378,  3.017,  0.146
 81600,  1.612,  1.566, 15.624,  2.750, -0.104
 81660,  1.698,  2.790, 17.106,  2.680,  0.105
 81720,  1.819,  3.957, 18.795,  3.062,  0.241
 81780,  1.923,  3.649, 18.906,  2.972,  0.201
 81840,  1.879,  3.460, 18.498,  3.203,  0.329
 81900,  1.863,  3.454, 19.145,  3.014,  0.272
 81960,  1.838,  3.473, 19.145,  3.099,  0.296
 82020,  1.808,  3.910, 18.831,  2.979,  0.201
 82080,  1.693,  4.071, 19.060,  2.967,  0.263
 82140,  1.600,  3.213, 16.251,  3.066,  0.125
 82200,  1.650,  3.073, 15.270,  3.199,  0.166
 82260,  1.673,  3.509, 16.288,  3.226,  0.268
 82320,  1.724,  4.266, 15.523,  3.294,  0.228
 82380,  1.713,  4.148, 16.024,  3.085,  0.244
 82440,  1.727,  4.267, 15.988,  3.430,  0.306
 82500,  1.708,  4.073, 16.332,  3.119,  0.188
 82560, -9999.000, -9999.000, -9999.000, -9999.000, -9999.000
 82620,  1.666,  4.227, 13.742,  3.280,  0.304
 82680,  1.659,  3.638, 14.249,  3.288,  0.297
 82740,  1.634,  3.461, 13.982,  3.272,  0.289
 82800,  1.605,  3.922, 14.354,  3.101,  0.276
 82860,  1.565,  3.035, 13.590,  3.016,  0.305
 82920,  1.562,  2.803, 13.366,  3.132,  0.222
 82980,  1.550,  3.156, 14.321,  3.235,  0.185
 83040,  1.644,  3.119, 14.851,  3.373,  0.237
 83100,  1.739,  3.442, 15.427,  3.266,  0.230
 83160,  1.717,  3.456, 15.683,  3.347,  0.207
 83220,  1.798,  3.761, 14.930,  3.451,  0.175
 83280,  1.887,  4.275, 14.550,  3.336,  0.292
 83340,  1.748,  4.039, 14.536,  3.299,  0.220
 83400,  1.708,  3.425, 13.334,  3.274,  0.188
 83460,  1.774,  3.117, 15.218,  3.274,  0.089
 83520,  1.835,  3.258, 15.418,  3.480,  0.131
 83580,  1.765,  2.951, 16.444,  3.434, -0.028
 83640,  1.809,  2.891, 16.660,  3.244, -0.091
 83700,  2.013,  3.811, 17.228,  3.225,  0.141
 83760,  2.116,  3.615, 17.436,  3.557,  0.095
 83820,  2.140,  3.647, 17.540,  3.642,  0.190
 83880,  2.123,  3.712, 17.321,  3.386,  0.166
 83940,  2.128,  3.910, 17.650,  3.549,  0.099
 84000,  2.126,  4.317, 17.796,  3.565,  0.131
 84060,  2.145,  4.690, 17.811,  3.523,  0.119
 84120,  2.181,  4.363, 18.954,  3.789,  0.055
 84180,  2.167,  4.540, 18.656,  3.569,  0.066
 84240,  2.177,  4.327, 17.688,  3.688, -0.064
 84300,  2.086,  3.944, 17.966,  3.606, -0.114
 84360,  1.966,  3.915, 18.587,  3.173, -0.061
 84420,  1.991,  5.322, 16.890,  3.405,  0.117
 84480,  2.018,  5.040, 17.061,  3.358, -0.089
 84540,  1.877,  4.182, 17.029,  3.473, -0.247
 84600,  1.989,  5.172, 18.129,  3.547,  0.009
 84660,  1.944,  5.352, 18.077,  3.339,  0.118
 84720,  1.939,  4.821, 18.282,  3.171,  0.052
 84780,  1.949,  5.851, 19.739,  3.312,  0.092
 84840,  2.002,  6.512, 20.455,  3.291,  0.078
 84900,  2.002,  6.947, 21.356,  3.335,  0.137
 84960,  2.043,  4.719, 17.004,  3.241,  0.109
 85020,  2.095,  5.797, 19.557,  3.473,  0.086
 85080,  2.091,  7.391, 23.438,  3.402,  0.081
 85140,  2.063,  8.261, 26.559,  3.464,  0.017
 85200,  2.173,  8.902, 27.622,  3.496,  0.157
 85260,  2.279,  7.840, 25.482,  3.506,  0.047
 85320,  2.262,  8.907, 25.429,  3.397,  0.159
 85380,  2.258,  8.599, 26.117,  3.389,  0.115
 85440,  2.267,  9.004, 24.347,  3.465,  0.071
 85500,  2.472,  9.004, 26.281,  3.459,  0.163
 85560,  2.235,  7.792, 25.499,  3.403,  0.136
 85620,  2.243,  8.145, 26.635,  3.555,  0.097
 85680,  2.215,  8.555, 28.018,  3.451,  0.169
 85740,  2.080,  8.507, 30.525,  3.349,  0.179
 85800,  2.045,  8.811, 31.394,  3.382,  0.162
 85860,  2.103,  9.057, 31.675,  3.348,  0.172
 85920,  2.050,  9.277, 31.365,  3.291,  0.208
 85980,  2.083,  8.826, 29.135,  3.433,  0.196
 86040,  2.083,  8.906, 27.586,  3.456,  0.186
 86100,  2.089,  8.881, 27.647,  3.524,  0.221
 86160,  2.002,  8.753, 27.541,  3.386,  0.121
 86220, -9999.000, -9999.000, -9999.000, -9999.000, -9999.000
 86280,  1.823,  7.817, 25.364,  3.537,  0.120
 86340,  1.930,  8.449, 25.595,  3.346,  0.229
