34, 1001
Carrie Womack
NOAA Chemical Sciences Laboratory
2B Tech O3 UV Analyzer
USOS
1, 1
2024, 07, 24, 2024, 12, 21
60
Time_Start, seconds_past_midnight, Seconds from midnight UTC
1
1
-9999
O3_ppb, ppb, Ozone from 2B Tech UV Analyzer
1
SPECIAL COMMENTS:
18
PI_CONTACT_INFO: Address: 325 Broadway R/CSL7, Boulder, CO, 80305
PLATFORM: CSL Mobile Lab
LOCATION: Salt Lake City, UT
ASSOCIATED_DATA: N/A
INSTRUMENT_INFO: N/A
DATA_INFO: Units:
UNCERTAINTY: N/A
ULOD_FLAG: -7777
ULOD_VALUE: N/A
LLOD_FLAG: -8888
LLOD_VALUE: N/A
DM_CONTACT_INFO: Data Manager: Nate Howard
PROJECT_INFO: 
STIPULATIONS_ON_USE: Use of these data require prior ok from PI.
OTHER_COMMENTS: N/A
REVISION: R0
R0: Final data. RA: Preliminary Data.  For in-field use only.
Time_Start, O3_ppb
0.0,81.0
60.0,70.2
120.0,83.1
180.0,80.7
240.0,77.7
300.0,81.3
360.0,79.5
420.0,79.7
480.0,80.8
540.0,76.9
600.0,80.3
660.0,78.1
720.0,74.3
780.0,72.1
840.0,71.2
900.0,80.1
960.0,79.2
1020.0,76.0
1080.0,75.0
1140.0,70.0
1200.0,69.2
1260.0,74.5
1320.0,76.7
1380.0,79.3
1440.0,77.6
1500.0,72.9
1560.0,77.0
1620.0,75.2
1680.0,77.8
1740.0,70.2
1800.0,77.6
1860.0,77.7
1920.0,78.3
1980.0,77.7
2040.0,74.2
2100.0,73.1
2160.0,72.1
2220.0,73.5
2280.0,73.3
2340.0,73.8
2400.0,72.8
2460.0,72.3
2520.0,73.2
2580.0,71.7
2640.0,75.1
2700.0,73.2
2760.0,73.2
2820.0,73.4
2880.0,74.2
2940.0,73.6
3000.0,72.7
3060.0,70.8
3120.0,71.0
3180.0,72.1
3240.0,72.1
3300.0,73.3
3360.0,73.0
3420.0,71.3
3480.0,69.6
3540.0,68.7
3600.0,70.7
3660.0,71.7
3720.0,72.8
3780.0,71.6
3840.0,70.3
3900.0,69.7
3960.0,68.5
4020.0,70.8
4080.0,68.5
4140.0,68.6
4200.0,68.3
4260.0,68.5
4320.0,67.9
4380.0,68.6
4440.0,68.8
4500.0,67.3
4560.0,68.2
4620.0,70.2
4680.0,70.7
4740.0,68.7
4800.0,69.8
4860.0,69.1
4920.0,69.7
4980.0,70.0
5040.0,68.8
5100.0,66.6
5160.0,68.1
5220.0,67.4
5280.0,67.8
5340.0,68.7
5400.0,67.6
5460.0,67.5
5520.0,67.5
5580.0,68.0
5640.0,69.1
5700.0,67.2
5760.0,68.3
5820.0,66.6
5880.0,66.5
5940.0,67.6
6000.0,66.0
6060.0,66.1
6120.0,63.6
6180.0,64.3
6240.0,65.5
6300.0,65.8
6360.0,66.4
6420.0,66.2
6480.0,66.6
6540.0,65.8
6600.0,64.7
6660.0,62.7
6720.0,63.1
6780.0,64.1
6840.0,64.0
6900.0,65.0
6960.0,65.1
7020.0,64.5
7080.0,64.4
7140.0,65.1
7200.0,65.0
7260.0,64.8
7320.0,63.4
7380.0,64.3
7440.0,64.3
7500.0,64.7
7560.0,64.3
7620.0,63.5
7680.0,63.9
7740.0,63.7
7800.0,63.8
7860.0,63.7
7920.0,59.2
7980.0,55.9
8040.0,55.5
8100.0,51.2
8160.0,54.1
8220.0,54.9
8280.0,55.8
8340.0,58.8
8400.0,59.8
8460.0,58.3
8520.0,58.0
8580.0,59.3
8640.0,59.7
8700.0,60.2
8760.0,57.1
8820.0,53.6
8880.0,56.7
8940.0,58.4
9000.0,59.4
9060.0,58.5
9120.0,58.6
9180.0,56.7
9240.0,56.7
9300.0,57.2
9360.0,56.7
9420.0,56.4
9480.0,56.3
9540.0,59.0
9600.0,57.2
9660.0,58.0
9720.0,57.8
9780.0,58.3
9840.0,58.6
9900.0,58.5
9960.0,56.8
10020.0,58.1
10080.0,59.3
10140.0,58.4
10200.0,59.2
10260.0,57.4
10320.0,58.7
10380.0,57.8
10440.0,57.3
10500.0,57.2
10560.0,57.6
10620.0,57.5
10680.0,57.3
10740.0,58.1
10800.0,55.9
10860.0,53.9
10920.0,56.6
10980.0,56.7
11040.0,56.2
11100.0,55.9
11160.0,56.7
11220.0,56.2
11280.0,54.9
11340.0,54.7
11400.0,56.1
11460.0,56.6
11520.0,57.7
11580.0,55.9
11640.0,55.3
11700.0,56.9
11760.0,58.1
11820.0,58.4
11880.0,58.6
11940.0,58.3
12000.0,58.7
12060.0,58.7
12120.0,57.6
12180.0,58.8
12240.0,58.5
12300.0,59.0
12360.0,58.5
12420.0,57.8
12480.0,58.0
12540.0,56.9
12600.0,57.5
12660.0,57.8
12720.0,59.5
12780.0,57.2
12840.0,58.8
12900.0,58.8
12960.0,58.2
13020.0,58.2
13080.0,59.3
13140.0,57.8
13200.0,59.6
13260.0,58.8
13320.0,59.2
13380.0,58.8
13440.0,60.3
13500.0,58.4
13560.0,59.5
13620.0,59.5
13680.0,57.8
13740.0,58.1
13800.0,58.0
13860.0,57.1
13920.0,58.7
13980.0,58.4
14040.0,59.5
14100.0,59.6
14160.0,60.7
14220.0,58.6
14280.0,60.2
14340.0,60.8
14400.0,60.1
14460.0,59.6
14520.0,60.1
14580.0,59.2
14640.0,58.9
14700.0,60.4
14760.0,59.3
14820.0,59.4
14880.0,59.3
14940.0,59.4
15000.0,59.1
15060.0,59.6
15120.0,58.4
15180.0,60.4
15240.0,59.9
15300.0,59.3
15360.0,59.1
15420.0,58.9
15480.0,58.7
15540.0,60.0
15600.0,59.8
15660.0,59.3
15720.0,59.0
15780.0,58.8
15840.0,59.7
15900.0,59.3
15960.0,60.2
16020.0,60.1
16080.0,57.7
16140.0,58.4
16200.0,58.1
16260.0,59.2
16320.0,58.5
16380.0,58.3
16440.0,58.7
16500.0,58.6
16560.0,58.5
16620.0,59.5
16680.0,58.5
16740.0,58.7
16800.0,58.9
16860.0,56.0
16920.0,56.3
16980.0,58.0
17040.0,58.9
17100.0,58.9
17160.0,57.8
17220.0,56.9
17280.0,56.3
17340.0,56.5
17400.0,52.8
17460.0,49.9
17520.0,44.8
17580.0,34.1
17640.0,39.9
17700.0,41.4
17760.0,52.0
17820.0,51.6
17880.0,51.7
17940.0,55.4
18000.0,52.7
18060.0,52.7
18120.0,53.8
18180.0,54.0
18240.0,54.8
18300.0,55.3
18360.0,54.8
18420.0,54.8
18480.0,53.3
18540.0,53.9
18600.0,55.4
18660.0,53.1
18720.0,53.6
18780.0,53.9
18840.0,54.6
18900.0,54.9
18960.0,55.9
19020.0,55.3
19080.0,55.1
19140.0,51.2
19200.0,54.3
19260.0,56.2
19320.0,58.7
19380.0,56.1
19440.0,59.5
19500.0,58.5
19560.0,59.3
19620.0,58.5
19680.0,58.2
19740.0,59.3
19800.0,59.3
19860.0,58.0
19920.0,57.8
19980.0,59.6
20040.0,59.2
20100.0,59.1
20160.0,60.3
20220.0,59.4
20280.0,59.8
20340.0,54.9
20400.0,59.6
20460.0,58.8
20520.0,58.6
20580.0,58.0
20640.0,61.3
20700.0,61.6
20760.0,62.2
20820.0,61.4
20880.0,61.0
20940.0,60.8
21000.0,60.8
21060.0,60.8
21120.0,61.4
21180.0,60.8
21240.0,61.1
21300.0,61.4
21360.0,61.9
21420.0,61.9
21480.0,60.6
21540.0,60.3
21600.0,60.8
21660.0,61.4
21720.0,61.9
21780.0,59.5
21840.0,61.5
21900.0,58.8
21960.0,60.6
22020.0,58.8
22080.0,61.8
22140.0,62.5
22200.0,62.9
22260.0,62.3
22320.0,62.3
22380.0,62.1
22440.0,61.6
22500.0,61.5
22560.0,62.7
22620.0,63.0
22680.0,63.6
22740.0,62.1
22800.0,62.2
22860.0,63.5
22920.0,63.8
22980.0,63.1
23040.0,63.4
23100.0,63.7
23160.0,62.1
23220.0,62.5
23280.0,63.3
23340.0,61.3
23400.0,63.3
23460.0,62.9
23520.0,63.6
23580.0,63.8
23640.0,63.1
23700.0,63.0
23760.0,62.7
23820.0,61.7
23880.0,63.8
23940.0,62.7
24000.0,60.9
24060.0,58.6
24120.0,58.4
24180.0,57.5
24240.0,57.2
24300.0,55.3
24360.0,55.3
24420.0,57.1
24480.0,55.2
24540.0,55.3
24600.0,56.9
24660.0,58.5
24720.0,54.8
24780.0,56.1
24840.0,55.3
24900.0,54.2
24960.0,53.7
25020.0,54.6
25080.0,54.0
25140.0,56.7
25200.0,57.6
25260.0,57.9
25320.0,60.4
25380.0,59.5
25440.0,60.1
25500.0,60.0
25560.0,60.3
25620.0,60.9
25680.0,61.9
25740.0,62.9
25800.0,62.8
25860.0,63.5
25920.0,61.4
25980.0,62.4
26040.0,61.8
26100.0,63.8
26160.0,63.4
26220.0,63.7
26280.0,63.6
26340.0,62.0
26400.0,61.2
26460.0,60.9
26520.0,60.8
26580.0,60.2
26640.0,60.9
26700.0,62.0
26760.0,64.2
26820.0,64.5
26880.0,63.0
26940.0,63.8
27000.0,64.9
27060.0,64.8
27120.0,64.5
27180.0,65.0
27240.0,66.8
27300.0,65.6
27360.0,65.3
27420.0,64.8
27480.0,65.7
27540.0,65.6
27600.0,66.1
27660.0,65.2
27720.0,65.4
27780.0,64.1
27840.0,64.6
27900.0,64.4
27960.0,64.0
28020.0,64.1
28080.0,65.0
28140.0,65.1
28200.0,64.7
28260.0,65.0
28320.0,65.3
28380.0,65.2
28440.0,65.9
28500.0,64.5
28560.0,63.7
28620.0,64.4
28680.0,63.9
28740.0,64.2
28800.0,63.0
28860.0,63.4
28920.0,62.7
28980.0,63.7
29040.0,63.9
29100.0,63.8
29160.0,64.4
29220.0,62.6
29280.0,63.1
29340.0,62.8
29400.0,62.1
29460.0,63.3
29520.0,63.1
29580.0,62.9
29640.0,62.5
29700.0,61.5
29760.0,62.6
29820.0,62.5
29880.0,62.4
29940.0,63.7
30000.0,61.9
30060.0,62.7
30120.0,61.8
30180.0,63.3
30240.0,61.4
30300.0,61.3
30360.0,62.5
30420.0,60.8
30480.0,61.2
30540.0,61.8
30600.0,61.7
30660.0,62.6
30720.0,62.2
30780.0,62.2
30840.0,62.7
30900.0,62.8
30960.0,63.7
31020.0,62.2
31080.0,61.7
31140.0,62.0
31200.0,62.3
31260.0,63.1
31320.0,62.2
31380.0,61.7
31440.0,61.3
31500.0,61.7
31560.0,62.4
31620.0,61.5
31680.0,61.7
31740.0,61.6
31800.0,61.7
31860.0,61.6
31920.0,59.9
31980.0,60.2
32040.0,61.8
32100.0,61.0
32160.0,62.3
32220.0,60.3
32280.0,61.8
32340.0,61.4
32400.0,62.0
32460.0,61.4
32520.0,60.7
32580.0,61.1
32640.0,61.8
32700.0,60.1
32760.0,60.3
32820.0,60.4
32880.0,59.8
32940.0,60.0
33000.0,59.4
33060.0,60.6
33120.0,59.9
33180.0,60.6
33240.0,59.7
33300.0,60.0
33360.0,59.7
33420.0,61.2
33480.0,59.8
33540.0,59.9
33600.0,59.6
33660.0,60.0
33720.0,60.3
33780.0,60.1
33840.0,59.2
33900.0,59.8
33960.0,59.9
34020.0,60.4
34080.0,60.7
34140.0,60.1
34200.0,59.7
34260.0,58.9
34320.0,58.5
34380.0,57.7
34440.0,57.7
34500.0,58.0
34560.0,57.8
34620.0,58.9
34680.0,58.8
34740.0,58.8
34800.0,56.5
34860.0,56.4
34920.0,55.9
34980.0,54.3
35040.0,55.4
35100.0,55.0
35160.0,53.7
35220.0,54.5
35280.0,50.5
35340.0,49.0
35400.0,47.7
35460.0,46.0
35520.0,50.7
35580.0,48.6
35640.0,48.1
35700.0,46.2
35760.0,43.5
35820.0,43.4
35880.0,41.8
35940.0,41.2
36000.0,39.6
36060.0,38.6
36120.0,38.5
36180.0,38.1
36240.0,36.9
36300.0,37.3
36360.0,38.4
36420.0,37.8
36480.0,37.9
36540.0,38.1
36600.0,36.7
36660.0,37.4
36720.0,36.9
36780.0,36.6
36840.0,37.0
36900.0,37.4
36960.0,36.6
37020.0,37.1
37080.0,36.9
37140.0,36.5
37200.0,36.1
37260.0,35.8
37320.0,36.2
37380.0,36.8
37440.0,36.6
37500.0,35.9
37560.0,37.1
37620.0,38.4
37680.0,41.1
37740.0,39.2
37800.0,39.9
37860.0,41.1
37920.0,41.1
37980.0,42.9
38040.0,43.0
38100.0,46.9
38160.0,48.4
38220.0,47.9
38280.0,46.1
38340.0,46.3
38400.0,49.5
38460.0,50.2
38520.0,50.6
38580.0,48.8
38640.0,51.3
38700.0,52.4
38760.0,52.2
38820.0,52.9
38880.0,52.8
38940.0,53.8
39000.0,56.3
39060.0,57.0
39120.0,58.1
39180.0,57.7
39240.0,57.4
39300.0,57.8
39360.0,57.2
39420.0,58.3
39480.0,57.8
39540.0,56.9
39600.0,57.4
39660.0,57.1
39720.0,56.3
39780.0,56.8
39840.0,58.2
39900.0,57.4
39960.0,57.0
40020.0,58.2
40080.0,57.4
40140.0,57.1
40200.0,57.8
40260.0,57.9
40320.0,56.3
40380.0,57.7
40440.0,57.7
40500.0,57.2
40560.0,56.0
40620.0,57.3
40680.0,56.3
40740.0,57.9
40800.0,55.1
40860.0,54.2
40920.0,54.9
40980.0,57.2
41040.0,55.4
41100.0,54.8
41160.0,56.1
41220.0,54.8
41280.0,56.0
41340.0,56.4
41400.0,57.3
41460.0,55.9
41520.0,56.2
41580.0,56.8
41640.0,55.7
41700.0,57.0
41760.0,56.1
41820.0,56.4
41880.0,55.6
41940.0,56.3
42000.0,55.5
42060.0,56.4
42120.0,54.8
42180.0,55.1
42240.0,55.2
42300.0,54.5
42360.0,55.2
42420.0,54.9
42480.0,52.4
42540.0,49.9
42600.0,50.6
42660.0,53.7
42720.0,50.3
42780.0,43.9
42840.0,39.8
42900.0,34.2
42960.0,34.6
43020.0,39.3
43080.0,37.6
43140.0,37.8
43200.0,38.4
43260.0,37.5
43320.0,41.4
43380.0,38.8
43440.0,38.9
43500.0,41.6
43560.0,45.1
43620.0,41.7
43680.0,39.9
43740.0,40.6
43800.0,46.5
43860.0,47.3
43920.0,45.7
43980.0,41.3
44040.0,42.7
44100.0,40.1
44160.0,38.3
44220.0,39.0
44280.0,37.8
44340.0,37.6
44400.0,39.5
44460.0,36.7
44520.0,39.3
44580.0,45.8
44640.0,37.8
44700.0,37.0
44760.0,34.3
44820.0,41.0
44880.0,41.2
44940.0,36.3
45000.0,35.4
45060.0,34.8
45120.0,31.5
45180.0,31.3
45240.0,32.1
45300.0,30.9
45360.0,31.3
45420.0,30.7
45480.0,33.6
45540.0,36.4
45600.0,39.3
45660.0,44.2
45720.0,48.8
45780.0,46.8
45840.0,45.5
45900.0,46.3
45960.0,43.8
46020.0,40.1
46080.0,52.3
46140.0,47.7
46200.0,46.2
46260.0,47.5
46320.0,49.3
46380.0,46.9
46440.0,48.8
46500.0,48.7
46560.0,50.2
46620.0,50.5
46680.0,49.3
46740.0,50.4
46800.0,48.1
46860.0,47.2
46920.0,48.7
46980.0,50.0
47040.0,50.6
47100.0,48.6
47160.0,45.4
47220.0,47.1
47280.0,50.8
47340.0,51.1
47400.0,49.4
47460.0,45.4
47520.0,42.2
47580.0,36.9
47640.0,44.3
47700.0,45.6
47760.0,44.9
47820.0,45.9
47880.0,46.2
47940.0,46.9
48000.0,45.7
48060.0,48.4
48120.0,42.2
48180.0,40.0
48240.0,40.3
48300.0,40.5
48360.0,40.8
48420.0,48.8
48480.0,41.8
48540.0,41.5
48600.0,43.4
48660.0,38.2
48720.0,39.8
48780.0,39.2
48840.0,40.8
48900.0,45.2
48960.0,44.9
49020.0,43.8
49080.0,42.3
49140.0,45.8
49200.0,39.7
49260.0,39.6
49320.0,39.0
49380.0,37.0
49440.0,37.6
49500.0,39.4
49560.0,40.9
49620.0,40.9
49680.0,38.3
49740.0,38.3
49800.0,39.7
49860.0,35.6
49920.0,38.2
49980.0,38.5
50040.0,42.5
50100.0,42.7
50160.0,41.4
50220.0,41.8
50280.0,48.0
50340.0,51.5
50400.0,50.5
50460.0,46.9
50520.0,43.7
50580.0,44.3
50640.0,47.2
50700.0,47.5
50760.0,48.2
50820.0,46.6
50880.0,50.8
50940.0,47.0
51000.0,45.5
51060.0,43.7
51120.0,46.0
51180.0,44.3
51240.0,42.6
51300.0,43.0
51360.0,41.1
51420.0,40.0
51480.0,38.8
51540.0,40.4
51600.0,38.6
51660.0,39.7
51720.0,41.4
51780.0,43.3
51840.0,42.2
51900.0,40.6
51960.0,42.4
52020.0,45.2
52080.0,49.6
52140.0,48.2
52200.0,46.7
52260.0,43.6
52320.0,43.2
52380.0,46.0
52440.0,43.2
52500.0,43.2
52560.0,41.5
52620.0,40.2
52680.0,41.1
52740.0,43.7
52800.0,44.8
52860.0,40.1
52920.0,39.2
52980.0,37.1
53040.0,43.9
53100.0,44.0
53160.0,44.7
53220.0,43.2
53280.0,46.9
53340.0,40.8
53400.0,39.4
53460.0,43.2
53520.0,41.7
53580.0,42.4
53640.0,42.4
53700.0,45.3
53760.0,47.0
53820.0,50.2
53880.0,49.4
53940.0,47.5
54000.0,47.8
54060.0,47.3
54120.0,48.9
54180.0,49.5
54240.0,47.0
54300.0,45.1
54360.0,44.1
54420.0,45.1
54480.0,45.8
54540.0,42.5
54600.0,47.9
54660.0,47.0
54720.0,47.5
54780.0,47.4
54840.0,49.1
54900.0,46.5
54960.0,45.2
55020.0,45.9
55080.0,46.4
55140.0,49.4
55200.0,47.4
55260.0,47.9
55320.0,47.4
55380.0,48.6
55440.0,47.7
55500.0,49.4
55560.0,47.9
55620.0,49.9
55680.0,49.5
55740.0,49.8
55800.0,50.0
55860.0,51.4
55920.0,53.1
55980.0,51.9
56040.0,52.0
56100.0,49.6
56160.0,47.9
56220.0,53.2
56280.0,52.4
56340.0,53.2
56400.0,54.5
56460.0,55.3
56520.0,55.0
56580.0,55.1
56640.0,54.5
56700.0,55.8
56760.0,53.1
56820.0,49.3
56880.0,50.5
56940.0,52.7
57000.0,52.8
57060.0,53.6
57120.0,52.9
57180.0,49.8
57240.0,52.4
57300.0,56.2
57360.0,55.1
57420.0,56.6
57480.0,55.6
57540.0,56.7
57600.0,53.0
57660.0,55.8
57720.0,55.8
57780.0,61.6
57840.0,60.1
57900.0,61.8
57960.0,62.3
58020.0,62.3
58080.0,61.4
58140.0,61.9
58200.0,61.0
58260.0,57.5
58320.0,60.3
58380.0,59.2
58440.0,61.5
58500.0,61.5
58560.0,62.2
58620.0,61.3
58680.0,60.8
58740.0,64.8
58800.0,63.3
58860.0,60.6
58920.0,63.6
58980.0,63.1
59040.0,66.6
59100.0,65.4
59160.0,65.5
59220.0,66.0
59280.0,67.5
59340.0,66.1
59400.0,65.6
59460.0,66.1
59520.0,65.2
59580.0,67.7
59640.0,67.9
59700.0,67.1
59760.0,65.5
59820.0,66.9
59880.0,67.8
59940.0,67.2
60000.0,69.2
60060.0,69.4
60120.0,70.1
60180.0,68.0
60240.0,67.7
60300.0,68.4
60360.0,70.7
60420.0,69.7
60480.0,71.8
60540.0,70.7
60600.0,70.8
60660.0,68.2
60720.0,68.7
60780.0,69.5
60840.0,69.6
60900.0,70.3
60960.0,67.4
61020.0,72.7
61080.0,70.6
61140.0,74.4
61200.0,73.9
61260.0,75.3
61320.0,75.0
61380.0,75.0
61440.0,73.5
61500.0,73.4
61560.0,73.5
61620.0,74.0
61680.0,75.0
61740.0,73.9
61800.0,76.0
61860.0,71.8
61920.0,70.9
61980.0,67.1
62040.0,69.4
62100.0,76.7
62160.0,76.9
62220.0,72.1
62280.0,70.6
62340.0,68.6
62400.0,69.4
62460.0,71.4
62520.0,72.2
62580.0,73.3
62640.0,74.1
62700.0,73.3
62760.0,71.5
62820.0,70.8
62880.0,74.4
62940.0,75.1
63000.0,75.3
63060.0,74.9
63120.0,75.6
63180.0,75.5
63240.0,78.3
63300.0,78.7
63360.0,77.2
63420.0,74.9
63480.0,80.7
63540.0,79.1
63600.0,77.9
63660.0,78.4
63720.0,77.9
63780.0,81.2
63840.0,79.1
63900.0,82.4
63960.0,83.4
64020.0,82.5
64080.0,82.7
64140.0,82.9
64200.0,82.7
64260.0,83.6
64320.0,83.4
64380.0,84.3
64440.0,83.7
64500.0,81.4
64560.0,77.1
64620.0,77.2
64680.0,74.9
64740.0,73.4
64800.0,78.6
64860.0,76.6
64920.0,77.0
64980.0,78.8
65040.0,78.8
65100.0,78.6
65160.0,78.2
65220.0,76.6
65280.0,79.6
65340.0,79.9
65400.0,79.7
65460.0,80.0
65520.0,78.8
65580.0,79.5
65640.0,79.6
65700.0,79.1
65760.0,78.5
65820.0,78.7
65880.0,82.3
65940.0,83.6
66000.0,82.3
66060.0,84.7
66120.0,85.5
66180.0,85.4
66240.0,85.0
66300.0,83.6
66360.0,81.5
66420.0,79.6
66480.0,80.2
66540.0,78.3
66600.0,82.8
66660.0,83.6
66720.0,82.3
66780.0,83.6
66840.0,83.3
66900.0,79.4
66960.0,79.7
67020.0,83.1
67080.0,83.7
67140.0,81.7
67200.0,79.9
67260.0,83.0
67320.0,83.2
67380.0,85.1
67440.0,86.3
67500.0,86.4
67560.0,85.2
67620.0,86.6
67680.0,85.0
67740.0,85.7
67800.0,85.9
67860.0,85.4
67920.0,78.4
67980.0,77.7
68040.0,79.3
68100.0,77.2
68160.0,80.0
68220.0,83.6
68280.0,81.4
68340.0,78.6
68400.0,85.4
68460.0,85.3
68520.0,81.3
68580.0,85.8
68640.0,83.7
68700.0,81.8
68760.0,83.6
68820.0,85.1
68880.0,85.4
68940.0,84.7
69000.0,84.9
69060.0,87.1
69120.0,87.5
69180.0,88.6
69240.0,88.4
69300.0,89.3
69360.0,89.0
69420.0,90.7
69480.0,86.5
69540.0,87.5
69600.0,89.6
69660.0,89.3
69720.0,88.0
69780.0,87.8
69840.0,88.5
69900.0,88.8
69960.0,84.9
70020.0,83.8
70080.0,83.3
70140.0,86.1
70200.0,84.8
70260.0,84.9
70320.0,84.2
70380.0,84.3
70440.0,88.0
70500.0,87.5
70560.0,90.3
70620.0,89.1
70680.0,90.6
70740.0,89.0
70800.0,87.8
70860.0,84.6
70920.0,85.0
70980.0,85.5
71040.0,83.3
71100.0,85.8
71160.0,86.9
71220.0,87.0
71280.0,86.3
71340.0,85.9
71400.0,84.9
71460.0,83.6
71520.0,83.3
71580.0,80.7
71640.0,79.2
71700.0,80.0
71760.0,78.2
71820.0,77.4
71880.0,84.7
71940.0,81.8
72000.0,83.7
72060.0,84.0
72120.0,85.4
72180.0,84.7
72240.0,84.7
72300.0,81.8
72360.0,80.2
72420.0,79.6
72480.0,78.5
72540.0,77.2
72600.0,79.2
72660.0,83.2
72720.0,83.6
72780.0,86.1
72840.0,83.4
72900.0,84.0
72960.0,84.0
73020.0,85.3
73080.0,85.3
73140.0,82.2
73200.0,82.5
73260.0,82.6
73320.0,83.9
73380.0,85.0
73440.0,85.8
73500.0,81.3
73560.0,86.4
73620.0,87.1
73680.0,84.3
73740.0,84.3
73800.0,84.4
73860.0,84.7
73920.0,85.5
73980.0,82.7
74040.0,84.6
74100.0,83.1
74160.0,85.9
74220.0,85.1
74280.0,85.0
74340.0,83.5
74400.0,83.7
74460.0,84.0
74520.0,86.9
74580.0,86.2
74640.0,85.8
74700.0,86.3
74760.0,86.8
74820.0,84.1
74880.0,86.5
74940.0,86.2
75000.0,86.5
75060.0,84.6
75120.0,87.9
75180.0,85.0
75240.0,86.0
75300.0,87.8
75360.0,85.9
75420.0,87.6
75480.0,87.1
75540.0,88.4
75600.0,85.9
75660.0,87.5
75720.0,87.8
75780.0,87.6
75840.0,89.6
75900.0,88.4
75960.0,88.8
76020.0,89.1
76080.0,87.9
76140.0,88.5
76200.0,87.5
76260.0,87.6
76320.0,87.1
76380.0,87.3
76440.0,88.6
76500.0,87.6
76560.0,87.0
76620.0,86.9
76680.0,87.6
76740.0,86.1
76800.0,91.6
76860.0,90.4
76920.0,90.3
76980.0,89.1
77040.0,85.9
77100.0,87.9
77160.0,89.2
77220.0,88.8
77280.0,87.9
77340.0,88.6
77400.0,88.4
77460.0,88.1
77520.0,88.3
77580.0,88.9
77640.0,89.0
77700.0,88.8
77760.0,87.8
77820.0,86.8
77880.0,87.4
77940.0,88.4
78000.0,87.6
78060.0,86.9
78120.0,88.2
78180.0,87.3
78240.0,87.7
78300.0,88.2
78360.0,83.2
78420.0,85.5
78480.0,87.0
78540.0,85.7
78600.0,86.2
78660.0,87.4
78720.0,87.3
78780.0,88.1
78840.0,86.0
78900.0,86.6
78960.0,86.4
79020.0,89.4
79080.0,89.8
79140.0,89.4
79200.0,90.0
79260.0,90.1
79320.0,89.3
79380.0,89.6
79440.0,86.5
79500.0,86.0
79560.0,84.9
79620.0,87.2
79680.0,88.4
79740.0,85.6
79800.0,87.0
79860.0,84.2
79920.0,84.8
79980.0,83.4
80040.0,85.8
80100.0,84.4
80160.0,85.8
80220.0,77.0
80280.0,85.4
80340.0,85.3
80400.0,86.5
80460.0,86.6
80520.0,84.6
80580.0,84.8
80640.0,85.4
80700.0,87.3
80760.0,86.2
80820.0,87.4
80880.0,87.1
80940.0,87.1
81000.0,85.4
81060.0,78.9
81120.0,84.6
81180.0,88.2
81240.0,88.2
81300.0,88.5
81360.0,87.5
81420.0,89.3
81480.0,87.2
81540.0,88.5
81600.0,87.5
81660.0,87.5
81720.0,78.6
81780.0,82.6
81840.0,87.1
81900.0,86.6
81960.0,84.7
82020.0,84.1
82080.0,87.2
82140.0,86.4
82200.0,87.2
82260.0,86.8
82320.0,84.6
82380.0,83.3
82440.0,84.5
82500.0,84.1
82560.0,85.9
82620.0,84.9
82680.0,86.7
82740.0,86.3
82800.0,86.9
82860.0,86.2
82920.0,86.6
82980.0,88.6
83040.0,87.3
83100.0,85.9
83160.0,84.5
83220.0,83.6
83280.0,87.3
83340.0,86.0
83400.0,86.6
83460.0,84.8
83520.0,84.7
83580.0,85.3
83640.0,84.7
83700.0,85.6
83760.0,84.7
83820.0,85.2
83880.0,86.4
83940.0,83.9
84000.0,84.1
84060.0,84.5
84120.0,86.6
84180.0,85.6
84240.0,86.4
84300.0,85.1
84360.0,85.2
84420.0,85.3
84480.0,82.4
84540.0,84.2
84600.0,86.1
84660.0,86.9
84720.0,80.8
84780.0,80.9
84840.0,78.7
84900.0,82.2
84960.0,84.6
85020.0,87.2
85080.0,87.1
85140.0,89.0
85200.0,88.1
85260.0,88.3
85320.0,86.8
85380.0,86.2
85440.0,88.5
85500.0,100.0
85560.0,90.8
85620.0,105.3
85680.0,84.4
85740.0,85.9
85800.0,87.6
85860.0,84.8
85920.0,82.5
85980.0,81.8
86040.0,83.9
86100.0,80.7
86160.0,81.3
86220.0,82.1
86280.0,80.3
86340.0,82.6
