34, 1001
Michael A Robinson, Chris Jernigan, Subi Thakali
NOAA ESRL Chemical Sciences Laboratory and CIRES, U. of Colorado
NOAA Iodide CIMS Instrument
USOS
1, 1
2024, 07, 15, 2024, 07, 17
0
starttime_UTC, seconds_past_midnight, seconds_of_day_since_00:00:00_UTC
1
1
-9999
HCOOH_NOAACIMS, pptv, Gas_HCOOH_InSitu_S_AVMR
1
N/A
18
PI_CONTACT_INFO: 325 Broadway, R/CSD 7, Boulder, Colorado 80305; michael.a.robinson@noaa.gov; chris.jernigan@noaa.gov;
PLATFORM: NOAA CSL Mobile Lab
LOCATION: SLC, Utah
ASSOCIATED_DATA: 1Hz data also available on request.
INSTRUMENT_INFO: NOAA I- ToF CIMS
DATA_INFO: Units: pptv
UNCERTAINTY: tbd
ULOD_FLAG: -7777
ULOD_VALUE: N/A
LLOD_FLAG: -8888
LLOD_VALUE: N/A
DM_CONTACT_INFO: Nathan Howard; nathan.h.howard@noaa.gov
PROJECT_INFO: USOS, summer 2024. https://csl.noaa.gov/groups/csl7/measurements/2024usos/
STIPULATIONS_ON_USE: only the USOS science team is allowed to use this data
OTHER_COMMENTS: Field data; Data are averaged to 1 minute intervals. Stationary data collected from a 10 ft tower on top of the mobile lab
REVISION: RA
RA: Preliminary Data; For in-field use only
starttime_UTC, HCOOH_NOAACIMS
0,-9999.000
60,-9999.000
120,-9999.000
180,-9999.000
240,-9999.000
300,-9999.000
360,-9999.000
420,-9999.000
480,-9999.000
540,-9999.000
600,-9999.000
660,-9999.000
720,-9999.000
780,-9999.000
840,-9999.000
900,-9999.000
960,-9999.000
1020,-9999.000
1080,-9999.000
1140,-9999.000
1200,-9999.000
1260,-9999.000
1320,-9999.000
1380,-9999.000
1440,-9999.000
1500,-9999.000
1560,-9999.000
1620,-9999.000
1680,-9999.000
1740,-9999.000
1800,-9999.000
1860,-9999.000
1920,-9999.000
1980,-9999.000
2040,-9999.000
2100,-9999.000
2160,-9999.000
2220,-9999.000
2280,-9999.000
2340,-9999.000
2400,-9999.000
2460,-9999.000
2520,-9999.000
2580,-9999.000
2640,-9999.000
2700,-9999.000
2760,-9999.000
2820,-9999.000
2880,-9999.000
2940,-9999.000
3000,-9999.000
3060,-9999.000
3120,-9999.000
3180,-9999.000
3240,-9999.000
3300,-9999.000
3360,-9999.000
3420,-9999.000
3480,-9999.000
3540,-9999.000
3600,-9999.000
3660,-9999.000
3720,-9999.000
3780,-9999.000
3840,-9999.000
3900,-9999.000
3960,-9999.000
4020,-9999.000
4080,-9999.000
4140,-9999.000
4200,-9999.000
4260,-9999.000
4320,-9999.000
4380,-9999.000
4440,-9999.000
4500,-9999.000
4560,-9999.000
4620,-9999.000
4680,-9999.000
4740,-9999.000
4800,-9999.000
4860,-9999.000
4920,-9999.000
4980,-9999.000
5040,-9999.000
5100,-9999.000
5160,-9999.000
5220,-9999.000
5280,-9999.000
5340,-9999.000
5400,-9999.000
5460,-9999.000
5520,-9999.000
5580,-9999.000
5640,-9999.000
5700,-9999.000
5760,-9999.000
5820,-9999.000
5880,-9999.000
5940,-9999.000
6000,-9999.000
6060,-9999.000
6120,-9999.000
6180,-9999.000
6240,-9999.000
6300,-9999.000
6360,-9999.000
6420,-9999.000
6480,-9999.000
6540,-9999.000
6600,-9999.000
6660,-9999.000
6720,-9999.000
6780,-9999.000
6840,-9999.000
6900,-9999.000
6960,-9999.000
7020,-9999.000
7080,-9999.000
7140,-9999.000
7200,-9999.000
7260,-9999.000
7320,-9999.000
7380,-9999.000
7440,-9999.000
7500,-9999.000
7560,-9999.000
7620,-9999.000
7680,-9999.000
7740,-9999.000
7800,-9999.000
7860,-9999.000
7920,-9999.000
7980,-9999.000
8040,-9999.000
8100,-9999.000
8160,-9999.000
8220,-9999.000
8280,-9999.000
8340,-9999.000
8400,-9999.000
8460,-9999.000
8520,-9999.000
8580,-9999.000
8640,-9999.000
8700,-9999.000
8760,-9999.000
8820,-9999.000
8880,-9999.000
8940,-9999.000
9000,-9999.000
9060,-9999.000
9120,-9999.000
9180,-9999.000
9240,-9999.000
9300,-9999.000
9360,-9999.000
9420,-9999.000
9480,-9999.000
9540,-9999.000
9600,-9999.000
9660,-9999.000
9720,-9999.000
9780,-9999.000
9840,-9999.000
9900,-9999.000
9960,-9999.000
10020,-9999.000
10080,-9999.000
10140,-9999.000
10200,-9999.000
10260,-9999.000
10320,-9999.000
10380,-9999.000
10440,-9999.000
10500,-9999.000
10560,-9999.000
10620,-9999.000
10680,-9999.000
10740,-9999.000
10800,-9999.000
10860,-9999.000
10920,-9999.000
10980,-9999.000
11040,-9999.000
11100,-9999.000
11160,-9999.000
11220,-9999.000
11280,-9999.000
11340,-9999.000
11400,-9999.000
11460,-9999.000
11520,-9999.000
11580,-9999.000
11640,-9999.000
11700,-9999.000
11760,-9999.000
11820,-9999.000
11880,-9999.000
11940,-9999.000
12000,-9999.000
12060,-9999.000
12120,-9999.000
12180,-9999.000
12240,-9999.000
12300,-9999.000
12360,-9999.000
12420,-9999.000
12480,-9999.000
12540,-9999.000
12600,-9999.000
12660,-9999.000
12720,-9999.000
12780,-9999.000
12840,-9999.000
12900,-9999.000
12960,-9999.000
13020,-9999.000
13080,-9999.000
13140,-9999.000
13200,-9999.000
13260,-9999.000
13320,-9999.000
13380,-9999.000
13440,-9999.000
13500,-9999.000
13560,-9999.000
13620,-9999.000
13680,-9999.000
13740,-9999.000
13800,-9999.000
13860,-9999.000
13920,-9999.000
13980,-9999.000
14040,-9999.000
14100,-9999.000
14160,-9999.000
14220,-9999.000
14280,-9999.000
14340,-9999.000
14400,-9999.000
14460,-9999.000
14520,-9999.000
14580,-9999.000
14640,-9999.000
14700,-9999.000
14760,-9999.000
14820,-9999.000
14880,-9999.000
14940,-9999.000
15000,-9999.000
15060,-9999.000
15120,-9999.000
15180,-9999.000
15240,-9999.000
15300,-9999.000
15360,-9999.000
15420,-9999.000
15480,-9999.000
15540,-9999.000
15600,-9999.000
15660,-9999.000
15720,-9999.000
15780,-9999.000
15840,-9999.000
15900,-9999.000
15960,-9999.000
16020,-9999.000
16080,-9999.000
16140,-9999.000
16200,-9999.000
16260,-9999.000
16320,-9999.000
16380,-9999.000
16440,-9999.000
16500,-9999.000
16560,-9999.000
16620,-9999.000
16680,-9999.000
16740,-9999.000
16800,-9999.000
16860,-9999.000
16920,-9999.000
16980,-9999.000
17040,-9999.000
17100,-9999.000
17160,-9999.000
17220,-9999.000
17280,-9999.000
17340,-9999.000
17400,-9999.000
17460,-9999.000
17520,-9999.000
17580,-9999.000
17640,-9999.000
17700,-9999.000
17760,-9999.000
17820,-9999.000
17880,-9999.000
17940,-9999.000
18000,-9999.000
18060,-9999.000
18120,-9999.000
18180,-9999.000
18240,-9999.000
18300,-9999.000
18360,-9999.000
18420,-9999.000
18480,-9999.000
18540,-9999.000
18600,-9999.000
18660,-9999.000
18720,-9999.000
18780,-9999.000
18840,-9999.000
18900,-9999.000
18960,-9999.000
19020,-9999.000
19080,-9999.000
19140,-9999.000
19200,-9999.000
19260,-9999.000
19320,-9999.000
19380,-9999.000
19440,-9999.000
19500,-9999.000
19560,-9999.000
19620,-9999.000
19680,-9999.000
19740,-9999.000
19800,-9999.000
19860,-9999.000
19920,-9999.000
19980,-9999.000
20040,-9999.000
20100,-9999.000
20160,-9999.000
20220,-9999.000
20280,-9999.000
20340,-9999.000
20400,-9999.000
20460,-9999.000
20520,-9999.000
20580,-9999.000
20640,-9999.000
20700,-9999.000
20760,-9999.000
20820,-9999.000
20880,-9999.000
20940,-9999.000
21000,-9999.000
21060,-9999.000
21120,-9999.000
21180,-9999.000
21240,-9999.000
21300,-9999.000
21360,-9999.000
21420,-9999.000
21480,-9999.000
21540,-9999.000
21600,-9999.000
21660,-9999.000
21720,-9999.000
21780,-9999.000
21840,-9999.000
21900,-9999.000
21960,-9999.000
22020,-9999.000
22080,-9999.000
22140,-9999.000
22200,-9999.000
22260,-9999.000
22320,-9999.000
22380,-9999.000
22440,-9999.000
22500,-9999.000
22560,-9999.000
22620,-9999.000
22680,-9999.000
22740,-9999.000
22800,-9999.000
22860,-9999.000
22920,-9999.000
22980,-9999.000
23040,-9999.000
23100,-9999.000
23160,-9999.000
23220,-9999.000
23280,-9999.000
23340,-9999.000
23400,-9999.000
23460,-9999.000
23520,-9999.000
23580,-9999.000
23640,-9999.000
23700,-9999.000
23760,-9999.000
23820,-9999.000
23880,-9999.000
23940,-9999.000
24000,-9999.000
24060,-9999.000
24120,-9999.000
24180,-9999.000
24240,-9999.000
24300,-9999.000
24360,-9999.000
24420,-9999.000
24480,-9999.000
24540,-9999.000
24600,-9999.000
24660,-9999.000
24720,-9999.000
24780,-9999.000
24840,-9999.000
24900,-9999.000
24960,-9999.000
25020,-9999.000
25080,-9999.000
25140,-9999.000
25200,-9999.000
25260,-9999.000
25320,-9999.000
25380,-9999.000
25440,-9999.000
25500,-9999.000
25560,-9999.000
25620,-9999.000
25680,-9999.000
25740,-9999.000
25800,-9999.000
25860,-9999.000
25920,-9999.000
25980,-9999.000
26040,-9999.000
26100,-9999.000
26160,-9999.000
26220,-9999.000
26280,-9999.000
26340,-9999.000
26400,-9999.000
26460,-9999.000
26520,-9999.000
26580,-9999.000
26640,-9999.000
26700,-9999.000
26760,-9999.000
26820,-9999.000
26880,-9999.000
26940,-9999.000
27000,-9999.000
27060,-9999.000
27120,-9999.000
27180,-9999.000
27240,-9999.000
27300,-9999.000
27360,-9999.000
27420,-9999.000
27480,-9999.000
27540,-9999.000
27600,-9999.000
27660,-9999.000
27720,-9999.000
27780,-9999.000
27840,-9999.000
27900,-9999.000
27960,-9999.000
28020,-9999.000
28080,-9999.000
28140,-9999.000
28200,-9999.000
28260,-9999.000
28320,-9999.000
28380,-9999.000
28440,-9999.000
28500,-9999.000
28560,-9999.000
28620,-9999.000
28680,-9999.000
28740,-9999.000
28800,-9999.000
28860,-9999.000
28920,-9999.000
28980,-9999.000
29040,-9999.000
29100,-9999.000
29160,-9999.000
29220,-9999.000
29280,-9999.000
29340,-9999.000
29400,-9999.000
29460,-9999.000
29520,-9999.000
29580,-9999.000
29640,-9999.000
29700,-9999.000
29760,-9999.000
29820,-9999.000
29880,-9999.000
29940,-9999.000
30000,-9999.000
30060,-9999.000
30120,-9999.000
30180,-9999.000
30240,-9999.000
30300,-9999.000
30360,-9999.000
30420,-9999.000
30480,-9999.000
30540,-9999.000
30600,-9999.000
30660,-9999.000
30720,-9999.000
30780,-9999.000
30840,-9999.000
30900,-9999.000
30960,-9999.000
31020,-9999.000
31080,-9999.000
31140,-9999.000
31200,-9999.000
31260,-9999.000
31320,-9999.000
31380,-9999.000
31440,-9999.000
31500,-9999.000
31560,-9999.000
31620,-9999.000
31680,-9999.000
31740,-9999.000
31800,-9999.000
31860,-9999.000
31920,-9999.000
31980,-9999.000
32040,-9999.000
32100,-9999.000
32160,-9999.000
32220,-9999.000
32280,-9999.000
32340,-9999.000
32400,-9999.000
32460,-9999.000
32520,-9999.000
32580,-9999.000
32640,-9999.000
32700,-9999.000
32760,-9999.000
32820,-9999.000
32880,-9999.000
32940,-9999.000
33000,-9999.000
33060,-9999.000
33120,-9999.000
33180,-9999.000
33240,-9999.000
33300,-9999.000
33360,-9999.000
33420,-9999.000
33480,-9999.000
33540,-9999.000
33600,-9999.000
33660,-9999.000
33720,-9999.000
33780,-9999.000
33840,-9999.000
33900,-9999.000
33960,-9999.000
34020,-9999.000
34080,-9999.000
34140,-9999.000
34200,-9999.000
34260,-9999.000
34320,-9999.000
34380,-9999.000
34440,-9999.000
34500,-9999.000
34560,-9999.000
34620,-9999.000
34680,-9999.000
34740,-9999.000
34800,-9999.000
34860,-9999.000
34920,-9999.000
34980,-9999.000
35040,-9999.000
35100,-9999.000
35160,-9999.000
35220,-9999.000
35280,-9999.000
35340,-9999.000
35400,-9999.000
35460,-9999.000
35520,-9999.000
35580,-9999.000
35640,-9999.000
35700,-9999.000
35760,-9999.000
35820,-9999.000
35880,-9999.000
35940,-9999.000
36000,-9999.000
36060,-9999.000
36120,-9999.000
36180,-9999.000
36240,-9999.000
36300,-9999.000
36360,-9999.000
36420,-9999.000
36480,-9999.000
36540,-9999.000
36600,-9999.000
36660,-9999.000
36720,-9999.000
36780,-9999.000
36840,-9999.000
36900,-9999.000
36960,-9999.000
37020,-9999.000
37080,-9999.000
37140,-9999.000
37200,-9999.000
37260,-9999.000
37320,-9999.000
37380,-9999.000
37440,-9999.000
37500,-9999.000
37560,-9999.000
37620,-9999.000
37680,-9999.000
37740,-9999.000
37800,-9999.000
37860,-9999.000
37920,-9999.000
37980,-9999.000
38040,-9999.000
38100,-9999.000
38160,-9999.000
38220,-9999.000
38280,-9999.000
38340,-9999.000
38400,-9999.000
38460,-9999.000
38520,-9999.000
38580,-9999.000
38640,-9999.000
38700,-9999.000
38760,-9999.000
38820,-9999.000
38880,-9999.000
38940,-9999.000
39000,-9999.000
39060,-9999.000
39120,-9999.000
39180,-9999.000
39240,-9999.000
39300,-9999.000
39360,-9999.000
39420,-9999.000
39480,-9999.000
39540,-9999.000
39600,-9999.000
39660,-9999.000
39720,-9999.000
39780,-9999.000
39840,-9999.000
39900,-9999.000
39960,-9999.000
40020,-9999.000
40080,-9999.000
40140,-9999.000
40200,-9999.000
40260,-9999.000
40320,-9999.000
40380,-9999.000
40440,-9999.000
40500,-9999.000
40560,-9999.000
40620,-9999.000
40680,-9999.000
40740,-9999.000
40800,-9999.000
40860,-9999.000
40920,-9999.000
40980,-9999.000
41040,-9999.000
41100,-9999.000
41160,-9999.000
41220,-9999.000
41280,-9999.000
41340,-9999.000
41400,-9999.000
41460,-9999.000
41520,-9999.000
41580,-9999.000
41640,-9999.000
41700,-9999.000
41760,-9999.000
41820,-9999.000
41880,-9999.000
41940,-9999.000
42000,-9999.000
42060,-9999.000
42120,-9999.000
42180,-9999.000
42240,-9999.000
42300,-9999.000
42360,-9999.000
42420,-9999.000
42480,-9999.000
42540,-9999.000
42600,-9999.000
42660,-9999.000
42720,-9999.000
42780,-9999.000
42840,-9999.000
42900,-9999.000
42960,-9999.000
43020,-9999.000
43080,-9999.000
43140,-9999.000
43200,-9999.000
43260,-9999.000
43320,-9999.000
43380,-9999.000
43440,-9999.000
43500,-9999.000
43560,-9999.000
43620,-9999.000
43680,-9999.000
43740,-9999.000
43800,-9999.000
43860,-9999.000
43920,-9999.000
43980,-9999.000
44040,-9999.000
44100,-9999.000
44160,-9999.000
44220,-9999.000
44280,-9999.000
44340,-9999.000
44400,-9999.000
44460,-9999.000
44520,-9999.000
44580,-9999.000
44640,-9999.000
44700,-9999.000
44760,-9999.000
44820,-9999.000
44880,-9999.000
44940,-9999.000
45000,-9999.000
45060,-9999.000
45120,-9999.000
45180,-9999.000
45240,-9999.000
45300,-9999.000
45360,-9999.000
45420,-9999.000
45480,-9999.000
45540,-9999.000
45600,-9999.000
45660,-9999.000
45720,-9999.000
45780,-9999.000
45840,-9999.000
45900,-9999.000
45960,-9999.000
46020,-9999.000
46080,-9999.000
46140,-9999.000
46200,-9999.000
46260,-9999.000
46320,-9999.000
46380,-9999.000
46440,-9999.000
46500,-9999.000
46560,-9999.000
46620,-9999.000
46680,-9999.000
46740,-9999.000
46800,-9999.000
46860,-9999.000
46920,-9999.000
46980,-9999.000
47040,-9999.000
47100,-9999.000
47160,-9999.000
47220,-9999.000
47280,-9999.000
47340,-9999.000
47400,-9999.000
47460,-9999.000
47520,-9999.000
47580,-9999.000
47640,-9999.000
47700,-9999.000
47760,-9999.000
47820,-9999.000
47880,-9999.000
47940,-9999.000
48000,-9999.000
48060,-9999.000
48120,-9999.000
48180,-9999.000
48240,-9999.000
48300,-9999.000
48360,-9999.000
48420,-9999.000
48480,-9999.000
48540,-9999.000
48600,-9999.000
48660,-9999.000
48720,-9999.000
48780,-9999.000
48840,-9999.000
48900,-9999.000
48960,-9999.000
49020,-9999.000
49080,-9999.000
49140,-9999.000
49200,-9999.000
49260,-9999.000
49320,-9999.000
49380,-9999.000
49440,-9999.000
49500,-9999.000
49560,-9999.000
49620,-9999.000
49680,-9999.000
49740,-9999.000
49800,-9999.000
49860,-9999.000
49920,-9999.000
49980,-9999.000
50040,-9999.000
50100,-9999.000
50160,-9999.000
50220,-9999.000
50280,-9999.000
50340,-9999.000
50400,-9999.000
50460,-9999.000
50520,-9999.000
50580,-9999.000
50640,-9999.000
50700,-9999.000
50760,-9999.000
50820,-9999.000
50880,-9999.000
50940,-9999.000
51000,3428.804
51060,3353.241
51120,3397.833
51180,3137.226
51240,3117.895
51300,2940.816
51360,-9999.000
51420,-9999.000
51480,-9999.000
51540,-9999.000
51600,2928.989
51660,2673.244
51720,2650.107
51780,2322.583
51840,2454.569
51900,2338.425
51960,2461.240
52020,2500.885
52080,2332.314
52140,2283.380
52200,2231.137
52260,2122.254
52320,2097.810
52380,2084.740
52440,2028.454
52500,2144.069
52560,2207.675
52620,2151.155
52680,2130.337
52740,1990.469
52800,1924.379
52860,-9999.000
52920,1408.879
52980,1387.175
53040,1409.206
53100,1467.905
53160,1394.587
53220,1409.753
53280,1488.763
53340,1564.131
53400,1536.811
53460,1648.378
53520,1666.377
53580,1600.197
53640,1426.388
53700,1415.522
53760,1507.288
53820,1601.520
53880,1476.324
53940,1582.867
54000,1575.534
54060,1621.645
54120,1708.814
54180,1737.279
54240,1814.139
54300,1902.667
54360,1932.459
54420,1954.065
54480,1965.245
54540,2004.223
54600,1966.138
54660,1980.124
54720,1783.756
54780,1925.354
54840,1899.165
54900,1946.784
54960,1923.038
55020,1845.914
55080,1864.857
55140,1820.363
55200,1820.194
55260,1723.528
55320,1809.238
55380,1815.934
55440,1779.789
55500,1877.180
55560,1824.665
55620,1823.470
55680,1741.570
55740,1725.864
55800,1741.813
55860,1689.728
55920,1713.800
55980,1668.151
56040,1651.335
56100,1566.662
56160,1557.242
56220,1579.175
56280,1567.992
56340,1729.972
56400,1623.470
56460,1567.888
56520,1620.587
56580,1442.120
56640,1568.202
56700,1617.564
56760,1430.472
56820,1448.180
56880,1380.306
56940,1362.543
57000,1287.734
57060,1245.315
57120,1161.282
57180,1235.714
57240,1212.726
57300,1269.138
57360,1238.704
57420,1228.102
57480,1242.849
57540,1129.335
57600,1153.192
57660,1110.421
57720,1134.649
57780,1135.781
57840,1173.528
57900,1186.933
57960,1250.117
58020,1129.127
58080,1095.542
58140,1085.730
58200,1074.313
58260,1134.512
58320,1142.150
58380,1105.258
58440,881.120
58500,923.046
58560,875.922
58620,881.108
58680,933.749
58740,883.212
58800,894.513
58860,875.162
58920,944.678
58980,1002.268
59040,1014.530
59100,936.012
59160,944.337
59220,941.952
59280,955.528
59340,947.531
59400,889.963
59460,931.399
59520,956.614
59580,992.536
59640,968.576
59700,914.900
59760,900.813
59820,873.825
59880,881.001
59940,864.063
60000,867.479
60060,906.212
60120,890.470
60180,866.366
60240,-9999.000
60300,830.006
60360,822.979
60420,833.726
60480,863.888
60540,828.414
60600,837.270
60660,783.165
60720,742.914
60780,797.067
60840,787.965
60900,738.222
60960,700.999
61020,697.644
61080,830.554
61140,1188.362
61200,1251.097
61260,1307.334
61320,1282.182
61380,1182.438
61440,1198.154
61500,1184.576
61560,1157.943
61620,1198.388
61680,1091.714
61740,1090.691
61800,1057.099
61860,1054.358
61920,1095.878
61980,933.286
62040,930.867
62100,929.820
62160,936.859
62220,971.454
62280,1041.060
62340,1000.262
62400,903.089
62460,927.914
62520,886.130
62580,879.537
62640,896.870
62700,878.881
62760,879.538
62820,848.865
62880,836.476
62940,872.642
63000,851.230
63060,826.503
63120,811.811
63180,835.525
63240,898.437
63300,811.104
63360,800.709
63420,814.531
63480,813.169
63540,805.142
63600,807.845
63660,823.187
63720,782.628
63780,734.479
63840,743.217
63900,734.758
63960,681.840
64020,713.362
64080,723.547
64140,748.080
64200,801.154
64260,808.056
64320,792.869
64380,765.904
64440,763.150
64500,793.166
64560,769.798
64620,761.489
64680,781.336
64740,796.527
64800,756.471
64860,751.279
64920,793.890
64980,810.390
65040,752.122
65100,768.446
65160,776.996
65220,761.694
65280,796.560
65340,773.922
65400,717.153
65460,725.296
65520,669.785
65580,642.503
65640,658.399
65700,644.514
65760,694.154
65820,635.003
65880,637.735
65940,663.759
66000,625.101
66060,585.556
66120,626.108
66180,607.312
66240,635.417
66300,624.543
66360,616.432
66420,650.151
66480,634.974
66540,605.538
66600,586.670
66660,608.684
66720,624.440
66780,675.794
66840,620.297
66900,562.783
66960,615.697
67020,-9999.000
67080,-9999.000
67140,-9999.000
67200,708.357
67260,629.440
67320,653.789
67380,641.555
67440,643.731
67500,661.384
67560,672.574
67620,628.987
67680,612.890
67740,596.648
67800,626.946
67860,561.682
67920,621.454
67980,638.474
68040,585.962
68100,630.699
68160,613.233
68220,636.391
68280,582.769
68340,573.770
68400,571.403
68460,596.064
68520,607.915
68580,604.166
68640,609.477
68700,582.272
68760,598.173
68820,606.449
68880,627.941
68940,666.573
69000,671.865
69060,636.143
69120,635.005
69180,656.218
69240,658.757
69300,651.858
69360,694.493
69420,682.094
69480,690.762
69540,687.054
69600,671.694
69660,699.463
69720,769.251
69780,694.500
69840,714.722
69900,687.437
69960,646.739
70020,690.002
70080,782.061
70140,771.159
70200,838.328
70260,808.638
70320,773.048
70380,790.245
70440,781.478
70500,826.830
70560,816.135
70620,823.749
70680,793.099
70740,788.286
70800,740.058
70860,806.684
70920,805.594
70980,796.843
71040,804.000
71100,847.908
71160,841.641
71220,880.459
71280,860.687
71340,895.378
71400,799.717
71460,881.639
71520,939.977
71580,893.307
71640,850.048
71700,873.609
71760,822.722
71820,849.353
71880,881.015
71940,979.475
72000,937.826
72060,979.812
72120,1029.258
72180,956.343
72240,976.286
72300,974.417
72360,934.670
72420,964.708
72480,972.739
72540,989.255
72600,993.851
72660,952.332
72720,945.197
72780,987.198
72840,1051.300
72900,1014.641
72960,932.274
73020,989.702
73080,1035.779
73140,1119.430
73200,996.306
73260,1005.104
73320,973.474
73380,922.003
73440,1025.412
73500,1054.846
73560,973.797
73620,937.899
73680,956.862
73740,991.665
73800,1024.160
73860,1101.070
73920,1058.985
73980,959.318
74040,968.451
74100,928.644
74160,922.116
74220,906.737
74280,1027.833
74340,1118.626
74400,1095.569
74460,1071.933
74520,1099.176
74580,1118.599
74640,1060.974
74700,1064.870
74760,1046.254
74820,996.658
74880,1026.237
74940,1026.415
75000,1120.247
75060,970.089
75120,1060.124
75180,1077.961
75240,1046.761
75300,1066.743
75360,1037.199
75420,1018.460
75480,860.243
75540,993.802
75600,1057.038
75660,1009.963
75720,987.869
75780,1012.635
75840,1066.118
75900,1121.327
75960,1038.914
76020,1085.620
76080,1106.096
76140,1020.509
76200,1021.659
76260,1079.318
76320,1031.557
76380,1066.099
76440,1062.539
76500,969.571
76560,976.592
76620,903.543
76680,920.234
76740,917.373
76800,861.677
76860,921.739
76920,945.401
76980,900.510
77040,953.113
77100,913.535
77160,934.093
77220,940.115
77280,969.753
77340,731.062
77400,768.023
77460,866.226
77520,930.269
77580,836.768
77640,837.653
77700,884.231
77760,866.888
77820,882.014
77880,947.016
77940,1001.724
78000,921.214
78060,910.168
78120,917.976
78180,963.614
78240,926.110
78300,883.776
78360,862.469
78420,854.449
78480,922.039
78540,875.609
78600,856.448
78660,912.281
78720,904.042
78780,920.938
78840,933.242
78900,902.584
78960,878.980
79020,937.208
79080,912.753
79140,903.922
79200,771.956
79260,890.405
79320,900.123
79380,816.915
79440,813.193
79500,793.973
79560,856.796
79620,740.815
79680,783.892
79740,821.260
79800,775.183
79860,774.423
79920,782.366
79980,811.353
80040,849.876
80100,886.809
80160,857.091
80220,840.184
80280,769.750
80340,747.478
80400,736.693
80460,737.005
80520,752.450
80580,724.874
80640,762.826
80700,763.551
80760,729.085
80820,790.934
80880,826.487
80940,788.038
81000,-9999.000
81060,579.101
81120,603.859
81180,712.709
81240,659.401
81300,628.475
81360,627.961
81420,674.070
81480,774.515
81540,689.954
81600,695.512
81660,746.860
81720,763.415
81780,735.164
81840,787.974
81900,782.755
81960,728.174
82020,781.093
82080,668.454
82140,708.076
82200,757.454
82260,768.845
82320,721.219
82380,679.376
82440,678.388
82500,693.042
82560,675.405
82620,785.617
82680,824.650
82740,764.132
82800,739.240
82860,594.335
82920,693.387
82980,779.317
83040,809.790
83100,810.316
83160,754.576
83220,774.535
83280,738.108
83340,775.553
83400,819.381
83460,784.678
83520,811.545
83580,876.724
83640,886.570
83700,849.046
83760,820.713
83820,856.168
83880,825.047
83940,831.812
84000,811.996
84060,779.721
84120,789.590
84180,855.409
84240,837.181
84300,833.126
84360,811.639
84420,838.300
84480,776.398
84540,811.692
84600,821.079
84660,760.018
84720,670.717
84780,720.596
84840,831.285
84900,837.726
84960,846.158
85020,862.270
85080,892.985
85140,908.919
85200,899.563
85260,881.740
85320,921.668
85380,885.335
85440,875.260
85500,970.651
85560,997.878
85620,933.701
85680,896.254
85740,949.741
85800,944.620
85860,881.671
85920,913.386
85980,953.907
86040,979.698
86100,959.844
86160,877.060
86220,924.943
86280,897.086
86340,876.754
