34, 1001
Michael A Robinson, Chris Jernigan, Subi Thakali
NOAA ESRL Chemical Sciences Laboratory and CIRES, U. of Colorado
NOAA Iodide CIMS Instrument
USOS
1, 1
2024, 07, 15, 2024, 07, 17
0
starttime_UTC, seconds_past_midnight, seconds_of_day_since_00:00:00_UTC
1
1
-9999
HNO2_NOAACIMS, pptv, Gas_HNO2_InSitu_S_AVMR
1
N/A
18
PI_CONTACT_INFO: 325 Broadway, R/CSD 7, Boulder, Colorado 80305; michael.a.robinson@noaa.gov; chris.jernigan@noaa.gov;
PLATFORM: NOAA CSL Mobile Lab
LOCATION: SLC, Utah
ASSOCIATED_DATA: 1Hz data also available on request.
INSTRUMENT_INFO: NOAA I- ToF CIMS
DATA_INFO: Units: pptv
UNCERTAINTY: tbd
ULOD_FLAG: -7777
ULOD_VALUE: N/A
LLOD_FLAG: -8888
LLOD_VALUE: N/A
DM_CONTACT_INFO: Nathan Howard; nathan.h.howard@noaa.gov
PROJECT_INFO: USOS, summer 2024. https://csl.noaa.gov/groups/csl7/measurements/2024usos/
STIPULATIONS_ON_USE: only the USOS science team is allowed to use this data
OTHER_COMMENTS: Field data; Data are averaged to 1 minute intervals. Stationary data collected from a 10 ft tower on top of the mobile lab
REVISION: RA
RA: Preliminary Data; For in-field use only
starttime_UTC, HNO2_NOAACIMS
0,-9999.000
60,-9999.000
120,-9999.000
180,-9999.000
240,-9999.000
300,-9999.000
360,-9999.000
420,-9999.000
480,-9999.000
540,-9999.000
600,-9999.000
660,-9999.000
720,-9999.000
780,-9999.000
840,-9999.000
900,-9999.000
960,-9999.000
1020,-9999.000
1080,-9999.000
1140,-9999.000
1200,-9999.000
1260,-9999.000
1320,-9999.000
1380,-9999.000
1440,-9999.000
1500,-9999.000
1560,-9999.000
1620,-9999.000
1680,-9999.000
1740,-9999.000
1800,-9999.000
1860,-9999.000
1920,-9999.000
1980,-9999.000
2040,-9999.000
2100,-9999.000
2160,-9999.000
2220,-9999.000
2280,-9999.000
2340,-9999.000
2400,-9999.000
2460,-9999.000
2520,-9999.000
2580,-9999.000
2640,-9999.000
2700,-9999.000
2760,-9999.000
2820,-9999.000
2880,-9999.000
2940,-9999.000
3000,-9999.000
3060,-9999.000
3120,-9999.000
3180,-9999.000
3240,-9999.000
3300,-9999.000
3360,-9999.000
3420,-9999.000
3480,-9999.000
3540,-9999.000
3600,-9999.000
3660,-9999.000
3720,-9999.000
3780,-9999.000
3840,-9999.000
3900,-9999.000
3960,-9999.000
4020,-9999.000
4080,-9999.000
4140,-9999.000
4200,-9999.000
4260,-9999.000
4320,-9999.000
4380,-9999.000
4440,-9999.000
4500,-9999.000
4560,-9999.000
4620,-9999.000
4680,-9999.000
4740,-9999.000
4800,-9999.000
4860,-9999.000
4920,-9999.000
4980,-9999.000
5040,-9999.000
5100,-9999.000
5160,-9999.000
5220,-9999.000
5280,-9999.000
5340,-9999.000
5400,-9999.000
5460,-9999.000
5520,-9999.000
5580,-9999.000
5640,-9999.000
5700,-9999.000
5760,-9999.000
5820,-9999.000
5880,-9999.000
5940,-9999.000
6000,-9999.000
6060,-9999.000
6120,-9999.000
6180,-9999.000
6240,-9999.000
6300,-9999.000
6360,-9999.000
6420,-9999.000
6480,-9999.000
6540,-9999.000
6600,-9999.000
6660,-9999.000
6720,-9999.000
6780,-9999.000
6840,-9999.000
6900,-9999.000
6960,-9999.000
7020,-9999.000
7080,-9999.000
7140,-9999.000
7200,-9999.000
7260,-9999.000
7320,-9999.000
7380,-9999.000
7440,-9999.000
7500,-9999.000
7560,-9999.000
7620,-9999.000
7680,-9999.000
7740,-9999.000
7800,-9999.000
7860,-9999.000
7920,-9999.000
7980,-9999.000
8040,-9999.000
8100,-9999.000
8160,-9999.000
8220,-9999.000
8280,-9999.000
8340,-9999.000
8400,-9999.000
8460,-9999.000
8520,-9999.000
8580,-9999.000
8640,-9999.000
8700,-9999.000
8760,-9999.000
8820,-9999.000
8880,-9999.000
8940,-9999.000
9000,-9999.000
9060,-9999.000
9120,-9999.000
9180,-9999.000
9240,-9999.000
9300,-9999.000
9360,-9999.000
9420,-9999.000
9480,-9999.000
9540,-9999.000
9600,-9999.000
9660,-9999.000
9720,-9999.000
9780,-9999.000
9840,-9999.000
9900,-9999.000
9960,-9999.000
10020,-9999.000
10080,-9999.000
10140,-9999.000
10200,-9999.000
10260,-9999.000
10320,-9999.000
10380,-9999.000
10440,-9999.000
10500,-9999.000
10560,-9999.000
10620,-9999.000
10680,-9999.000
10740,-9999.000
10800,-9999.000
10860,-9999.000
10920,-9999.000
10980,-9999.000
11040,-9999.000
11100,-9999.000
11160,-9999.000
11220,-9999.000
11280,-9999.000
11340,-9999.000
11400,-9999.000
11460,-9999.000
11520,-9999.000
11580,-9999.000
11640,-9999.000
11700,-9999.000
11760,-9999.000
11820,-9999.000
11880,-9999.000
11940,-9999.000
12000,-9999.000
12060,-9999.000
12120,-9999.000
12180,-9999.000
12240,-9999.000
12300,-9999.000
12360,-9999.000
12420,-9999.000
12480,-9999.000
12540,-9999.000
12600,-9999.000
12660,-9999.000
12720,-9999.000
12780,-9999.000
12840,-9999.000
12900,-9999.000
12960,-9999.000
13020,-9999.000
13080,-9999.000
13140,-9999.000
13200,-9999.000
13260,-9999.000
13320,-9999.000
13380,-9999.000
13440,-9999.000
13500,-9999.000
13560,-9999.000
13620,-9999.000
13680,-9999.000
13740,-9999.000
13800,-9999.000
13860,-9999.000
13920,-9999.000
13980,-9999.000
14040,-9999.000
14100,-9999.000
14160,-9999.000
14220,-9999.000
14280,-9999.000
14340,-9999.000
14400,-9999.000
14460,-9999.000
14520,-9999.000
14580,-9999.000
14640,-9999.000
14700,-9999.000
14760,-9999.000
14820,-9999.000
14880,-9999.000
14940,-9999.000
15000,-9999.000
15060,-9999.000
15120,-9999.000
15180,-9999.000
15240,-9999.000
15300,-9999.000
15360,-9999.000
15420,-9999.000
15480,-9999.000
15540,-9999.000
15600,-9999.000
15660,-9999.000
15720,-9999.000
15780,-9999.000
15840,-9999.000
15900,-9999.000
15960,-9999.000
16020,-9999.000
16080,-9999.000
16140,-9999.000
16200,-9999.000
16260,-9999.000
16320,-9999.000
16380,-9999.000
16440,-9999.000
16500,-9999.000
16560,-9999.000
16620,-9999.000
16680,-9999.000
16740,-9999.000
16800,-9999.000
16860,-9999.000
16920,-9999.000
16980,-9999.000
17040,-9999.000
17100,-9999.000
17160,-9999.000
17220,-9999.000
17280,-9999.000
17340,-9999.000
17400,-9999.000
17460,-9999.000
17520,-9999.000
17580,-9999.000
17640,-9999.000
17700,-9999.000
17760,-9999.000
17820,-9999.000
17880,-9999.000
17940,-9999.000
18000,-9999.000
18060,-9999.000
18120,-9999.000
18180,-9999.000
18240,-9999.000
18300,-9999.000
18360,-9999.000
18420,-9999.000
18480,-9999.000
18540,-9999.000
18600,-9999.000
18660,-9999.000
18720,-9999.000
18780,-9999.000
18840,-9999.000
18900,-9999.000
18960,-9999.000
19020,-9999.000
19080,-9999.000
19140,-9999.000
19200,-9999.000
19260,-9999.000
19320,-9999.000
19380,-9999.000
19440,-9999.000
19500,-9999.000
19560,-9999.000
19620,-9999.000
19680,-9999.000
19740,-9999.000
19800,-9999.000
19860,-9999.000
19920,-9999.000
19980,-9999.000
20040,-9999.000
20100,-9999.000
20160,-9999.000
20220,-9999.000
20280,-9999.000
20340,-9999.000
20400,-9999.000
20460,-9999.000
20520,-9999.000
20580,-9999.000
20640,-9999.000
20700,-9999.000
20760,-9999.000
20820,-9999.000
20880,-9999.000
20940,-9999.000
21000,-9999.000
21060,-9999.000
21120,-9999.000
21180,-9999.000
21240,-9999.000
21300,-9999.000
21360,-9999.000
21420,-9999.000
21480,-9999.000
21540,-9999.000
21600,-9999.000
21660,-9999.000
21720,-9999.000
21780,-9999.000
21840,-9999.000
21900,-9999.000
21960,-9999.000
22020,-9999.000
22080,-9999.000
22140,-9999.000
22200,-9999.000
22260,-9999.000
22320,-9999.000
22380,-9999.000
22440,-9999.000
22500,-9999.000
22560,-9999.000
22620,-9999.000
22680,-9999.000
22740,-9999.000
22800,-9999.000
22860,-9999.000
22920,-9999.000
22980,-9999.000
23040,-9999.000
23100,-9999.000
23160,-9999.000
23220,-9999.000
23280,-9999.000
23340,-9999.000
23400,-9999.000
23460,-9999.000
23520,-9999.000
23580,-9999.000
23640,-9999.000
23700,-9999.000
23760,-9999.000
23820,-9999.000
23880,-9999.000
23940,-9999.000
24000,-9999.000
24060,-9999.000
24120,-9999.000
24180,-9999.000
24240,-9999.000
24300,-9999.000
24360,-9999.000
24420,-9999.000
24480,-9999.000
24540,-9999.000
24600,-9999.000
24660,-9999.000
24720,-9999.000
24780,-9999.000
24840,-9999.000
24900,-9999.000
24960,-9999.000
25020,-9999.000
25080,-9999.000
25140,-9999.000
25200,-9999.000
25260,-9999.000
25320,-9999.000
25380,-9999.000
25440,-9999.000
25500,-9999.000
25560,-9999.000
25620,-9999.000
25680,-9999.000
25740,-9999.000
25800,-9999.000
25860,-9999.000
25920,-9999.000
25980,-9999.000
26040,-9999.000
26100,-9999.000
26160,-9999.000
26220,-9999.000
26280,-9999.000
26340,-9999.000
26400,-9999.000
26460,-9999.000
26520,-9999.000
26580,-9999.000
26640,-9999.000
26700,-9999.000
26760,-9999.000
26820,-9999.000
26880,-9999.000
26940,-9999.000
27000,-9999.000
27060,-9999.000
27120,-9999.000
27180,-9999.000
27240,-9999.000
27300,-9999.000
27360,-9999.000
27420,-9999.000
27480,-9999.000
27540,-9999.000
27600,-9999.000
27660,-9999.000
27720,-9999.000
27780,-9999.000
27840,-9999.000
27900,-9999.000
27960,-9999.000
28020,-9999.000
28080,-9999.000
28140,-9999.000
28200,-9999.000
28260,-9999.000
28320,-9999.000
28380,-9999.000
28440,-9999.000
28500,-9999.000
28560,-9999.000
28620,-9999.000
28680,-9999.000
28740,-9999.000
28800,-9999.000
28860,-9999.000
28920,-9999.000
28980,-9999.000
29040,-9999.000
29100,-9999.000
29160,-9999.000
29220,-9999.000
29280,-9999.000
29340,-9999.000
29400,-9999.000
29460,-9999.000
29520,-9999.000
29580,-9999.000
29640,-9999.000
29700,-9999.000
29760,-9999.000
29820,-9999.000
29880,-9999.000
29940,-9999.000
30000,-9999.000
30060,-9999.000
30120,-9999.000
30180,-9999.000
30240,-9999.000
30300,-9999.000
30360,-9999.000
30420,-9999.000
30480,-9999.000
30540,-9999.000
30600,-9999.000
30660,-9999.000
30720,-9999.000
30780,-9999.000
30840,-9999.000
30900,-9999.000
30960,-9999.000
31020,-9999.000
31080,-9999.000
31140,-9999.000
31200,-9999.000
31260,-9999.000
31320,-9999.000
31380,-9999.000
31440,-9999.000
31500,-9999.000
31560,-9999.000
31620,-9999.000
31680,-9999.000
31740,-9999.000
31800,-9999.000
31860,-9999.000
31920,-9999.000
31980,-9999.000
32040,-9999.000
32100,-9999.000
32160,-9999.000
32220,-9999.000
32280,-9999.000
32340,-9999.000
32400,-9999.000
32460,-9999.000
32520,-9999.000
32580,-9999.000
32640,-9999.000
32700,-9999.000
32760,-9999.000
32820,-9999.000
32880,-9999.000
32940,-9999.000
33000,-9999.000
33060,-9999.000
33120,-9999.000
33180,-9999.000
33240,-9999.000
33300,-9999.000
33360,-9999.000
33420,-9999.000
33480,-9999.000
33540,-9999.000
33600,-9999.000
33660,-9999.000
33720,-9999.000
33780,-9999.000
33840,-9999.000
33900,-9999.000
33960,-9999.000
34020,-9999.000
34080,-9999.000
34140,-9999.000
34200,-9999.000
34260,-9999.000
34320,-9999.000
34380,-9999.000
34440,-9999.000
34500,-9999.000
34560,-9999.000
34620,-9999.000
34680,-9999.000
34740,-9999.000
34800,-9999.000
34860,-9999.000
34920,-9999.000
34980,-9999.000
35040,-9999.000
35100,-9999.000
35160,-9999.000
35220,-9999.000
35280,-9999.000
35340,-9999.000
35400,-9999.000
35460,-9999.000
35520,-9999.000
35580,-9999.000
35640,-9999.000
35700,-9999.000
35760,-9999.000
35820,-9999.000
35880,-9999.000
35940,-9999.000
36000,-9999.000
36060,-9999.000
36120,-9999.000
36180,-9999.000
36240,-9999.000
36300,-9999.000
36360,-9999.000
36420,-9999.000
36480,-9999.000
36540,-9999.000
36600,-9999.000
36660,-9999.000
36720,-9999.000
36780,-9999.000
36840,-9999.000
36900,-9999.000
36960,-9999.000
37020,-9999.000
37080,-9999.000
37140,-9999.000
37200,-9999.000
37260,-9999.000
37320,-9999.000
37380,-9999.000
37440,-9999.000
37500,-9999.000
37560,-9999.000
37620,-9999.000
37680,-9999.000
37740,-9999.000
37800,-9999.000
37860,-9999.000
37920,-9999.000
37980,-9999.000
38040,-9999.000
38100,-9999.000
38160,-9999.000
38220,-9999.000
38280,-9999.000
38340,-9999.000
38400,-9999.000
38460,-9999.000
38520,-9999.000
38580,-9999.000
38640,-9999.000
38700,-9999.000
38760,-9999.000
38820,-9999.000
38880,-9999.000
38940,-9999.000
39000,-9999.000
39060,-9999.000
39120,-9999.000
39180,-9999.000
39240,-9999.000
39300,-9999.000
39360,-9999.000
39420,-9999.000
39480,-9999.000
39540,-9999.000
39600,-9999.000
39660,-9999.000
39720,-9999.000
39780,-9999.000
39840,-9999.000
39900,-9999.000
39960,-9999.000
40020,-9999.000
40080,-9999.000
40140,-9999.000
40200,-9999.000
40260,-9999.000
40320,-9999.000
40380,-9999.000
40440,-9999.000
40500,-9999.000
40560,-9999.000
40620,-9999.000
40680,-9999.000
40740,-9999.000
40800,-9999.000
40860,-9999.000
40920,-9999.000
40980,-9999.000
41040,-9999.000
41100,-9999.000
41160,-9999.000
41220,-9999.000
41280,-9999.000
41340,-9999.000
41400,-9999.000
41460,-9999.000
41520,-9999.000
41580,-9999.000
41640,-9999.000
41700,-9999.000
41760,-9999.000
41820,-9999.000
41880,-9999.000
41940,-9999.000
42000,-9999.000
42060,-9999.000
42120,-9999.000
42180,-9999.000
42240,-9999.000
42300,-9999.000
42360,-9999.000
42420,-9999.000
42480,-9999.000
42540,-9999.000
42600,-9999.000
42660,-9999.000
42720,-9999.000
42780,-9999.000
42840,-9999.000
42900,-9999.000
42960,-9999.000
43020,-9999.000
43080,-9999.000
43140,-9999.000
43200,-9999.000
43260,-9999.000
43320,-9999.000
43380,-9999.000
43440,-9999.000
43500,-9999.000
43560,-9999.000
43620,-9999.000
43680,-9999.000
43740,-9999.000
43800,-9999.000
43860,-9999.000
43920,-9999.000
43980,-9999.000
44040,-9999.000
44100,-9999.000
44160,-9999.000
44220,-9999.000
44280,-9999.000
44340,-9999.000
44400,-9999.000
44460,-9999.000
44520,-9999.000
44580,-9999.000
44640,-9999.000
44700,-9999.000
44760,-9999.000
44820,-9999.000
44880,-9999.000
44940,-9999.000
45000,-9999.000
45060,-9999.000
45120,-9999.000
45180,-9999.000
45240,-9999.000
45300,-9999.000
45360,-9999.000
45420,-9999.000
45480,-9999.000
45540,-9999.000
45600,-9999.000
45660,-9999.000
45720,-9999.000
45780,-9999.000
45840,-9999.000
45900,-9999.000
45960,-9999.000
46020,-9999.000
46080,-9999.000
46140,-9999.000
46200,-9999.000
46260,-9999.000
46320,-9999.000
46380,-9999.000
46440,-9999.000
46500,-9999.000
46560,-9999.000
46620,-9999.000
46680,-9999.000
46740,-9999.000
46800,-9999.000
46860,-9999.000
46920,-9999.000
46980,-9999.000
47040,-9999.000
47100,-9999.000
47160,-9999.000
47220,-9999.000
47280,-9999.000
47340,-9999.000
47400,-9999.000
47460,-9999.000
47520,-9999.000
47580,-9999.000
47640,-9999.000
47700,-9999.000
47760,-9999.000
47820,-9999.000
47880,-9999.000
47940,-9999.000
48000,-9999.000
48060,-9999.000
48120,-9999.000
48180,-9999.000
48240,-9999.000
48300,-9999.000
48360,-9999.000
48420,-9999.000
48480,-9999.000
48540,-9999.000
48600,-9999.000
48660,-9999.000
48720,-9999.000
48780,-9999.000
48840,-9999.000
48900,-9999.000
48960,-9999.000
49020,-9999.000
49080,-9999.000
49140,-9999.000
49200,-9999.000
49260,-9999.000
49320,-9999.000
49380,-9999.000
49440,-9999.000
49500,-9999.000
49560,-9999.000
49620,-9999.000
49680,-9999.000
49740,-9999.000
49800,-9999.000
49860,-9999.000
49920,-9999.000
49980,-9999.000
50040,-9999.000
50100,-9999.000
50160,-9999.000
50220,-9999.000
50280,-9999.000
50340,-9999.000
50400,-9999.000
50460,-9999.000
50520,-9999.000
50580,-9999.000
50640,-9999.000
50700,-9999.000
50760,-9999.000
50820,-9999.000
50880,-9999.000
50940,-9999.000
51000,-9999.000
51060,-9999.000
51120,-9999.000
51180,-9999.000
51240,-9999.000
51300,-9999.000
51360,-9999.000
51420,-9999.000
51480,-9999.000
51540,-9999.000
51600,-9999.000
51660,-9999.000
51720,-9999.000
51780,-9999.000
51840,-9999.000
51900,-9999.000
51960,-9999.000
52020,-9999.000
52080,-9999.000
52140,-9999.000
52200,-9999.000
52260,-9999.000
52320,-9999.000
52380,-9999.000
52440,-9999.000
52500,-9999.000
52560,-9999.000
52620,-9999.000
52680,-9999.000
52740,-9999.000
52800,-9999.000
52860,-9999.000
52920,26.142
52980,30.039
53040,21.811
53100,23.780
53160,19.798
53220,13.681
53280,19.909
53340,33.098
53400,31.389
53460,32.931
53520,28.019
53580,30.738
53640,6.348
53700,5.038
53760,6.709
53820,19.888
53880,15.511
53940,1.722
54000,5.524
54060,11.484
54120,15.203
54180,15.621
54240,14.768
54300,26.702
54360,13.025
54420,25.072
54480,28.450
54540,32.966
54600,26.657
54660,27.675
54720,28.891
54780,25.024
54840,28.754
54900,26.382
54960,18.650
55020,26.848
55080,35.563
55140,24.756
55200,18.949
55260,17.107
55320,26.004
55380,30.490
55440,26.895
55500,28.815
55560,29.890
55620,30.726
55680,21.062
55740,26.490
55800,16.702
55860,13.346
55920,18.182
55980,24.533
56040,27.985
56100,30.538
56160,16.018
56220,21.491
56280,26.151
56340,23.470
56400,16.048
56460,23.248
56520,61.526
56580,27.011
56640,19.392
56700,22.422
56760,13.181
56820,16.860
56880,13.811
56940,24.428
57000,5.938
57060,16.739
57120,9.560
57180,22.289
57240,24.579
57300,18.461
57360,10.929
57420,15.509
57480,10.801
57540,12.943
57600,8.890
57660,9.982
57720,14.269
57780,26.809
57840,41.349
57900,15.015
57960,13.502
58020,14.211
58080,18.298
58140,21.186
58200,15.562
58260,19.303
58320,16.177
58380,18.780
58440,12.079
58500,16.626
58560,12.797
58620,13.331
58680,9.676
58740,12.716
58800,9.159
58860,18.376
58920,19.326
58980,25.987
59040,19.827
59100,20.302
59160,17.514
59220,23.642
59280,12.472
59340,18.978
59400,18.331
59460,16.895
59520,16.067
59580,20.713
59640,16.981
59700,16.300
59760,13.405
59820,12.762
59880,14.552
59940,12.894
60000,14.520
60060,14.986
60120,13.628
60180,11.810
60240,-9999.000
60300,14.592
60360,12.048
60420,18.018
60480,21.528
60540,18.062
60600,33.146
60660,14.261
60720,9.682
60780,23.624
60840,15.565
60900,13.901
60960,12.519
61020,14.236
61080,8.052
61140,18.647
61200,17.979
61260,19.463
61320,20.510
61380,13.378
61440,13.541
61500,16.501
61560,12.802
61620,17.015
61680,13.429
61740,12.817
61800,19.822
61860,24.643
61920,14.447
61980,12.629
62040,9.205
62100,9.905
62160,11.706
62220,9.528
62280,16.012
62340,16.450
62400,13.463
62460,34.165
62520,12.082
62580,14.156
62640,27.846
62700,5.562
62760,11.999
62820,7.841
62880,3.970
62940,14.940
63000,12.130
63060,6.064
63120,8.815
63180,14.811
63240,30.904
63300,18.709
63360,13.692
63420,6.113
63480,11.086
63540,9.534
63600,10.765
63660,10.802
63720,15.807
63780,10.144
63840,10.035
63900,9.553
63960,9.948
64020,9.855
64080,8.836
64140,16.231
64200,15.749
64260,25.973
64320,14.635
64380,10.552
64440,22.581
64500,29.185
64560,20.072
64620,17.722
64680,18.980
64740,22.993
64800,13.895
64860,12.352
64920,16.018
64980,22.065
65040,11.397
65100,12.476
65160,9.963
65220,10.943
65280,15.806
65340,11.700
65400,10.333
65460,12.147
65520,10.504
65580,11.906
65640,7.022
65700,11.456
65760,15.417
65820,12.870
65880,8.423
65940,8.353
66000,9.526
66060,4.197
66120,6.794
66180,7.319
66240,9.189
66300,6.270
66360,7.885
66420,7.611
66480,5.651
66540,3.016
66600,8.154
66660,4.122
66720,5.857
66780,5.003
66840,6.982
66900,1.867
66960,4.701
67020,-9999.000
67080,-9999.000
67140,-9999.000
67200,12.468
67260,7.464
67320,10.930
67380,8.339
67440,9.494
67500,9.047
67560,8.790
67620,6.736
67680,6.029
67740,4.780
67800,7.571
67860,4.836
67920,5.151
67980,8.268
68040,7.943
68100,14.604
68160,5.742
68220,5.261
68280,5.528
68340,2.117
68400,4.684
68460,7.928
68520,4.506
68580,7.073
68640,8.635
68700,2.861
68760,1.274
68820,3.841
68880,5.174
68940,9.030
69000,8.172
69060,5.855
69120,4.234
69180,5.218
69240,8.437
69300,7.143
69360,12.233
69420,8.299
69480,6.905
69540,6.999
69600,3.836
69660,3.086
69720,6.485
69780,5.197
69840,5.280
69900,12.267
69960,5.214
70020,3.385
70080,5.020
70140,1.820
70200,6.187
70260,3.856
70320,3.832
70380,3.103
70440,6.838
70500,10.261
70560,2.724
70620,10.993
70680,8.186
70740,20.711
70800,0.874
70860,3.536
70920,-0.201
70980,0.923
71040,2.195
71100,-1.054
71160,0.955
71220,1.809
71280,-1.079
71340,2.859
71400,-2.727
71460,1.083
71520,1.034
71580,1.141
71640,-2.425
71700,-0.084
71760,2.785
71820,2.901
71880,0.466
71940,6.037
72000,4.700
72060,4.539
72120,7.133
72180,3.520
72240,2.557
72300,2.376
72360,-1.191
72420,-0.743
72480,0.279
72540,0.559
72600,5.605
72660,-2.618
72720,-0.188
72780,3.745
72840,2.602
72900,1.055
72960,1.131
73020,2.962
73080,3.362
73140,12.447
73200,7.675
73260,3.010
73320,6.590
73380,-1.751
73440,5.926
73500,7.631
73560,4.947
73620,5.213
73680,4.088
73740,4.653
73800,6.608
73860,10.894
73920,4.029
73980,-0.227
74040,2.711
74100,-1.294
74160,0.318
74220,-3.085
74280,1.469
74340,5.858
74400,3.706
74460,5.334
74520,6.197
74580,4.019
74640,6.513
74700,21.285
74760,22.460
74820,9.901
74880,19.160
74940,5.212
75000,8.099
75060,32.237
75120,16.591
75180,32.547
75240,11.798
75300,10.885
75360,5.119
75420,5.522
75480,4.054
75540,7.800
75600,9.283
75660,2.540
75720,4.449
75780,4.870
75840,15.336
75900,35.463
75960,10.933
76020,12.309
76080,4.443
76140,6.773
76200,2.197
76260,4.621
76320,2.029
76380,3.962
76440,4.880
76500,3.741
76560,4.118
76620,3.429
76680,2.089
76740,5.584
76800,6.304
76860,8.388
76920,6.430
76980,4.155
77040,6.615
77100,5.747
77160,5.953
77220,7.010
77280,3.269
77340,6.132
77400,4.225
77460,4.579
77520,10.210
77580,-2.565
77640,3.025
77700,6.444
77760,3.511
77820,3.002
77880,5.786
77940,9.492
78000,3.598
78060,0.547
78120,2.227
78180,6.238
78240,2.228
78300,1.323
78360,2.620
78420,-0.344
78480,4.521
78540,1.954
78600,-0.925
78660,3.485
78720,0.358
78780,4.860
78840,-1.281
78900,-0.171
78960,-3.022
79020,-0.829
79080,0.991
79140,1.737
79200,-0.174
79260,2.408
79320,-3.079
79380,-2.152
79440,-4.376
79500,-1.991
79560,-2.998
79620,-6.268
79680,-2.021
79740,-3.415
79800,-2.430
79860,-4.631
79920,-2.791
79980,-3.326
80040,-2.625
80100,-1.234
80160,-5.420
80220,-2.319
80280,-4.401
80340,-7.009
80400,-5.329
80460,5.124
80520,16.197
80580,8.442
80640,8.510
80700,2.793
80760,-4.264
80820,-3.258
80880,-2.160
80940,-0.720
81000,-9999.000
81060,-6.279
81120,-2.583
81180,-4.144
81240,-3.949
81300,-4.898
81360,-5.235
81420,4.862
81480,13.186
81540,0.685
81600,0.538
81660,2.605
81720,4.045
81780,2.153
81840,5.108
81900,4.294
81960,0.450
82020,5.712
82080,0.922
82140,-1.849
82200,3.807
82260,2.619
82320,1.734
82380,1.847
82440,4.014
82500,2.547
82560,2.654
82620,8.631
82680,9.107
82740,6.110
82800,8.758
82860,1.224
82920,8.943
82980,11.003
83040,12.823
83100,10.554
83160,5.892
83220,5.260
83280,7.253
83340,7.220
83400,8.787
83460,6.788
83520,6.837
83580,10.664
83640,13.395
83700,14.334
83760,7.010
83820,7.106
83880,7.544
83940,4.699
84000,5.618
84060,3.662
84120,6.166
84180,5.651
84240,5.975
84300,5.194
84360,3.959
84420,9.513
84480,2.810
84540,5.608
84600,9.341
84660,-1.524
84720,3.799
84780,1.429
84840,3.171
84900,6.601
84960,3.308
85020,7.043
85080,4.887
85140,5.359
85200,4.704
85260,3.284
85320,7.066
85380,2.286
85440,2.271
85500,6.683
85560,5.763
85620,5.410
85680,2.391
85740,2.716
85800,5.469
85860,2.357
85920,5.610
85980,4.073
86040,8.521
86100,5.901
86160,2.388
86220,5.619
86280,5.233
86340,3.823
