34, 1001
Michael A Robinson, Chris Jernigan, Subi Thakali
NOAA ESRL Chemical Sciences Laboratory and CIRES, U. of Colorado
NOAA Iodide CIMS Instrument
USOS
1, 1
2024, 07, 15, 2024, 07, 17
0
starttime_UTC, seconds_past_midnight, seconds_of_day_since_00:00:00_UTC
1
1
-9999
N2O5_NOAACIMS, pptv, Gas_N2O5_InSitu_S_AVMR
1
N/A
18
PI_CONTACT_INFO: 325 Broadway, R/CSD 7, Boulder, Colorado 80305; michael.a.robinson@noaa.gov; chris.jernigan@noaa.gov;
PLATFORM: NOAA CSL Mobile Lab
LOCATION: SLC, Utah
ASSOCIATED_DATA: 1Hz data also available on request.
INSTRUMENT_INFO: NOAA I- ToF CIMS
DATA_INFO: Units: pptv
UNCERTAINTY: tbd
ULOD_FLAG: -7777
ULOD_VALUE: N/A
LLOD_FLAG: -8888
LLOD_VALUE: N/A
DM_CONTACT_INFO: Nathan Howard; nathan.h.howard@noaa.gov
PROJECT_INFO: USOS, summer 2024. https://csl.noaa.gov/groups/csl7/measurements/2024usos/
STIPULATIONS_ON_USE: only the USOS science team is allowed to use this data
OTHER_COMMENTS: Field data; Data are averaged to 1 minute intervals. Stationary data collected from a 10 ft tower on top of the mobile lab
REVISION: RA
RA: Preliminary Data; For in-field use only
starttime_UTC, N2O5_NOAACIMS
0,-9999.000
60,-9999.000
120,-9999.000
180,-9999.000
240,-9999.000
300,-9999.000
360,-9999.000
420,-9999.000
480,-9999.000
540,-9999.000
600,-9999.000
660,-9999.000
720,-9999.000
780,-9999.000
840,-9999.000
900,-9999.000
960,-9999.000
1020,-9999.000
1080,-9999.000
1140,-9999.000
1200,-9999.000
1260,-9999.000
1320,-9999.000
1380,-9999.000
1440,-9999.000
1500,-9999.000
1560,-9999.000
1620,-9999.000
1680,-9999.000
1740,-9999.000
1800,-9999.000
1860,-9999.000
1920,-9999.000
1980,-9999.000
2040,-9999.000
2100,-9999.000
2160,-9999.000
2220,-9999.000
2280,-9999.000
2340,-9999.000
2400,-9999.000
2460,-9999.000
2520,-9999.000
2580,-9999.000
2640,-9999.000
2700,-9999.000
2760,-9999.000
2820,-9999.000
2880,-9999.000
2940,-9999.000
3000,-9999.000
3060,-9999.000
3120,-9999.000
3180,-9999.000
3240,-9999.000
3300,-9999.000
3360,-9999.000
3420,-9999.000
3480,-9999.000
3540,-9999.000
3600,-9999.000
3660,-9999.000
3720,-9999.000
3780,-9999.000
3840,-9999.000
3900,-9999.000
3960,-9999.000
4020,-9999.000
4080,-9999.000
4140,-9999.000
4200,-9999.000
4260,-9999.000
4320,-9999.000
4380,-9999.000
4440,-9999.000
4500,-9999.000
4560,-9999.000
4620,-9999.000
4680,-9999.000
4740,-9999.000
4800,-9999.000
4860,-9999.000
4920,-9999.000
4980,-9999.000
5040,-9999.000
5100,-9999.000
5160,-9999.000
5220,-9999.000
5280,-9999.000
5340,-9999.000
5400,-9999.000
5460,-9999.000
5520,-9999.000
5580,-9999.000
5640,-9999.000
5700,-9999.000
5760,-9999.000
5820,-9999.000
5880,-9999.000
5940,-9999.000
6000,-9999.000
6060,-9999.000
6120,-9999.000
6180,-9999.000
6240,-9999.000
6300,-9999.000
6360,-9999.000
6420,-9999.000
6480,-9999.000
6540,-9999.000
6600,-9999.000
6660,-9999.000
6720,-9999.000
6780,-9999.000
6840,-9999.000
6900,-9999.000
6960,-9999.000
7020,-9999.000
7080,-9999.000
7140,-9999.000
7200,-9999.000
7260,-9999.000
7320,-9999.000
7380,-9999.000
7440,-9999.000
7500,-9999.000
7560,-9999.000
7620,-9999.000
7680,-9999.000
7740,-9999.000
7800,-9999.000
7860,-9999.000
7920,-9999.000
7980,-9999.000
8040,-9999.000
8100,-9999.000
8160,-9999.000
8220,-9999.000
8280,-9999.000
8340,-9999.000
8400,-9999.000
8460,-9999.000
8520,-9999.000
8580,-9999.000
8640,-9999.000
8700,-9999.000
8760,-9999.000
8820,-9999.000
8880,-9999.000
8940,-9999.000
9000,-9999.000
9060,-9999.000
9120,-9999.000
9180,-9999.000
9240,-9999.000
9300,-9999.000
9360,-9999.000
9420,-9999.000
9480,-9999.000
9540,-9999.000
9600,-9999.000
9660,-9999.000
9720,-9999.000
9780,-9999.000
9840,-9999.000
9900,-9999.000
9960,-9999.000
10020,-9999.000
10080,-9999.000
10140,-9999.000
10200,-9999.000
10260,-9999.000
10320,-9999.000
10380,-9999.000
10440,-9999.000
10500,-9999.000
10560,-9999.000
10620,-9999.000
10680,-9999.000
10740,-9999.000
10800,-9999.000
10860,-9999.000
10920,-9999.000
10980,-9999.000
11040,-9999.000
11100,-9999.000
11160,-9999.000
11220,-9999.000
11280,-9999.000
11340,-9999.000
11400,-9999.000
11460,-9999.000
11520,-9999.000
11580,-9999.000
11640,-9999.000
11700,-9999.000
11760,-9999.000
11820,-9999.000
11880,-9999.000
11940,-9999.000
12000,-9999.000
12060,-9999.000
12120,-9999.000
12180,-9999.000
12240,-9999.000
12300,-9999.000
12360,-9999.000
12420,-9999.000
12480,-9999.000
12540,-9999.000
12600,-9999.000
12660,-9999.000
12720,-9999.000
12780,-9999.000
12840,-9999.000
12900,-9999.000
12960,-9999.000
13020,-9999.000
13080,-9999.000
13140,-9999.000
13200,-9999.000
13260,-9999.000
13320,-9999.000
13380,-9999.000
13440,-9999.000
13500,-9999.000
13560,-9999.000
13620,-9999.000
13680,-9999.000
13740,-9999.000
13800,-9999.000
13860,-9999.000
13920,-9999.000
13980,-9999.000
14040,-9999.000
14100,-9999.000
14160,-9999.000
14220,-9999.000
14280,-9999.000
14340,-9999.000
14400,-9999.000
14460,-9999.000
14520,-9999.000
14580,-9999.000
14640,-9999.000
14700,-9999.000
14760,-9999.000
14820,-9999.000
14880,-9999.000
14940,-9999.000
15000,-9999.000
15060,-9999.000
15120,-9999.000
15180,-9999.000
15240,-9999.000
15300,-9999.000
15360,-9999.000
15420,-9999.000
15480,-9999.000
15540,-9999.000
15600,-9999.000
15660,-9999.000
15720,-9999.000
15780,-9999.000
15840,-9999.000
15900,-9999.000
15960,-9999.000
16020,-9999.000
16080,-9999.000
16140,-9999.000
16200,-9999.000
16260,-9999.000
16320,-9999.000
16380,-9999.000
16440,-9999.000
16500,-9999.000
16560,-9999.000
16620,-9999.000
16680,-9999.000
16740,-9999.000
16800,-9999.000
16860,-9999.000
16920,-9999.000
16980,-9999.000
17040,-9999.000
17100,-9999.000
17160,-9999.000
17220,-9999.000
17280,-9999.000
17340,-9999.000
17400,-9999.000
17460,-9999.000
17520,-9999.000
17580,-9999.000
17640,-9999.000
17700,-9999.000
17760,-9999.000
17820,-9999.000
17880,-9999.000
17940,-9999.000
18000,-9999.000
18060,-9999.000
18120,-9999.000
18180,-9999.000
18240,-9999.000
18300,-9999.000
18360,-9999.000
18420,-9999.000
18480,-9999.000
18540,-9999.000
18600,-9999.000
18660,-9999.000
18720,-9999.000
18780,-9999.000
18840,-9999.000
18900,-9999.000
18960,-9999.000
19020,-9999.000
19080,-9999.000
19140,-9999.000
19200,-9999.000
19260,-9999.000
19320,-9999.000
19380,-9999.000
19440,-9999.000
19500,-9999.000
19560,-9999.000
19620,-9999.000
19680,-9999.000
19740,-9999.000
19800,-9999.000
19860,-9999.000
19920,-9999.000
19980,-9999.000
20040,-9999.000
20100,-9999.000
20160,-9999.000
20220,-9999.000
20280,-9999.000
20340,-9999.000
20400,-9999.000
20460,-9999.000
20520,-9999.000
20580,-9999.000
20640,-9999.000
20700,-9999.000
20760,-9999.000
20820,-9999.000
20880,-9999.000
20940,-9999.000
21000,-9999.000
21060,-9999.000
21120,-9999.000
21180,-9999.000
21240,-9999.000
21300,-9999.000
21360,-9999.000
21420,-9999.000
21480,-9999.000
21540,-9999.000
21600,-9999.000
21660,-9999.000
21720,-9999.000
21780,-9999.000
21840,-9999.000
21900,-9999.000
21960,-9999.000
22020,-9999.000
22080,-9999.000
22140,-9999.000
22200,-9999.000
22260,-9999.000
22320,-9999.000
22380,-9999.000
22440,-9999.000
22500,-9999.000
22560,-9999.000
22620,-9999.000
22680,-9999.000
22740,-9999.000
22800,-9999.000
22860,-9999.000
22920,-9999.000
22980,-9999.000
23040,-9999.000
23100,-9999.000
23160,-9999.000
23220,-9999.000
23280,-9999.000
23340,-9999.000
23400,-9999.000
23460,-9999.000
23520,-9999.000
23580,-9999.000
23640,-9999.000
23700,-9999.000
23760,-9999.000
23820,-9999.000
23880,-9999.000
23940,-9999.000
24000,-9999.000
24060,-9999.000
24120,-9999.000
24180,-9999.000
24240,-9999.000
24300,-9999.000
24360,-9999.000
24420,-9999.000
24480,-9999.000
24540,-9999.000
24600,-9999.000
24660,-9999.000
24720,-9999.000
24780,-9999.000
24840,-9999.000
24900,-9999.000
24960,-9999.000
25020,-9999.000
25080,-9999.000
25140,-9999.000
25200,-9999.000
25260,-9999.000
25320,-9999.000
25380,-9999.000
25440,-9999.000
25500,-9999.000
25560,-9999.000
25620,-9999.000
25680,-9999.000
25740,-9999.000
25800,-9999.000
25860,-9999.000
25920,-9999.000
25980,-9999.000
26040,-9999.000
26100,-9999.000
26160,-9999.000
26220,-9999.000
26280,-9999.000
26340,-9999.000
26400,-9999.000
26460,-9999.000
26520,-9999.000
26580,-9999.000
26640,-9999.000
26700,-9999.000
26760,-9999.000
26820,-9999.000
26880,-9999.000
26940,-9999.000
27000,-9999.000
27060,-9999.000
27120,-9999.000
27180,-9999.000
27240,-9999.000
27300,-9999.000
27360,-9999.000
27420,-9999.000
27480,-9999.000
27540,-9999.000
27600,-9999.000
27660,-9999.000
27720,-9999.000
27780,-9999.000
27840,-9999.000
27900,-9999.000
27960,-9999.000
28020,-9999.000
28080,-9999.000
28140,-9999.000
28200,-9999.000
28260,-9999.000
28320,-9999.000
28380,-9999.000
28440,-9999.000
28500,-9999.000
28560,-9999.000
28620,-9999.000
28680,-9999.000
28740,-9999.000
28800,-9999.000
28860,-9999.000
28920,-9999.000
28980,-9999.000
29040,-9999.000
29100,-9999.000
29160,-9999.000
29220,-9999.000
29280,-9999.000
29340,-9999.000
29400,-9999.000
29460,-9999.000
29520,-9999.000
29580,-9999.000
29640,-9999.000
29700,-9999.000
29760,-9999.000
29820,-9999.000
29880,-9999.000
29940,-9999.000
30000,-9999.000
30060,-9999.000
30120,-9999.000
30180,-9999.000
30240,-9999.000
30300,-9999.000
30360,-9999.000
30420,-9999.000
30480,-9999.000
30540,-9999.000
30600,-9999.000
30660,-9999.000
30720,-9999.000
30780,-9999.000
30840,-9999.000
30900,-9999.000
30960,-9999.000
31020,-9999.000
31080,-9999.000
31140,-9999.000
31200,-9999.000
31260,-9999.000
31320,-9999.000
31380,-9999.000
31440,-9999.000
31500,-9999.000
31560,-9999.000
31620,-9999.000
31680,-9999.000
31740,-9999.000
31800,-9999.000
31860,-9999.000
31920,-9999.000
31980,-9999.000
32040,-9999.000
32100,-9999.000
32160,-9999.000
32220,-9999.000
32280,-9999.000
32340,-9999.000
32400,-9999.000
32460,-9999.000
32520,-9999.000
32580,-9999.000
32640,-9999.000
32700,-9999.000
32760,-9999.000
32820,-9999.000
32880,-9999.000
32940,-9999.000
33000,-9999.000
33060,-9999.000
33120,-9999.000
33180,-9999.000
33240,-9999.000
33300,-9999.000
33360,-9999.000
33420,-9999.000
33480,-9999.000
33540,-9999.000
33600,-9999.000
33660,-9999.000
33720,-9999.000
33780,-9999.000
33840,-9999.000
33900,-9999.000
33960,-9999.000
34020,-9999.000
34080,-9999.000
34140,-9999.000
34200,-9999.000
34260,-9999.000
34320,-9999.000
34380,-9999.000
34440,-9999.000
34500,-9999.000
34560,-9999.000
34620,-9999.000
34680,-9999.000
34740,-9999.000
34800,-9999.000
34860,-9999.000
34920,-9999.000
34980,-9999.000
35040,-9999.000
35100,-9999.000
35160,-9999.000
35220,-9999.000
35280,-9999.000
35340,-9999.000
35400,-9999.000
35460,-9999.000
35520,-9999.000
35580,-9999.000
35640,-9999.000
35700,-9999.000
35760,-9999.000
35820,-9999.000
35880,-9999.000
35940,-9999.000
36000,-9999.000
36060,-9999.000
36120,-9999.000
36180,-9999.000
36240,-9999.000
36300,-9999.000
36360,-9999.000
36420,-9999.000
36480,-9999.000
36540,-9999.000
36600,-9999.000
36660,-9999.000
36720,-9999.000
36780,-9999.000
36840,-9999.000
36900,-9999.000
36960,-9999.000
37020,-9999.000
37080,-9999.000
37140,-9999.000
37200,-9999.000
37260,-9999.000
37320,-9999.000
37380,-9999.000
37440,-9999.000
37500,-9999.000
37560,-9999.000
37620,-9999.000
37680,-9999.000
37740,-9999.000
37800,-9999.000
37860,-9999.000
37920,-9999.000
37980,-9999.000
38040,-9999.000
38100,-9999.000
38160,-9999.000
38220,-9999.000
38280,-9999.000
38340,-9999.000
38400,-9999.000
38460,-9999.000
38520,-9999.000
38580,-9999.000
38640,-9999.000
38700,-9999.000
38760,-9999.000
38820,-9999.000
38880,-9999.000
38940,-9999.000
39000,-9999.000
39060,-9999.000
39120,-9999.000
39180,-9999.000
39240,-9999.000
39300,-9999.000
39360,-9999.000
39420,-9999.000
39480,-9999.000
39540,-9999.000
39600,-9999.000
39660,-9999.000
39720,-9999.000
39780,-9999.000
39840,-9999.000
39900,-9999.000
39960,-9999.000
40020,-9999.000
40080,-9999.000
40140,-9999.000
40200,-9999.000
40260,-9999.000
40320,-9999.000
40380,-9999.000
40440,-9999.000
40500,-9999.000
40560,-9999.000
40620,-9999.000
40680,-9999.000
40740,-9999.000
40800,-9999.000
40860,-9999.000
40920,-9999.000
40980,-9999.000
41040,-9999.000
41100,-9999.000
41160,-9999.000
41220,-9999.000
41280,-9999.000
41340,-9999.000
41400,-9999.000
41460,-9999.000
41520,-9999.000
41580,-9999.000
41640,-9999.000
41700,-9999.000
41760,-9999.000
41820,-9999.000
41880,-9999.000
41940,-9999.000
42000,-9999.000
42060,-9999.000
42120,-9999.000
42180,-9999.000
42240,-9999.000
42300,-9999.000
42360,-9999.000
42420,-9999.000
42480,-9999.000
42540,-9999.000
42600,-9999.000
42660,-9999.000
42720,-9999.000
42780,-9999.000
42840,-9999.000
42900,-9999.000
42960,-9999.000
43020,-9999.000
43080,-9999.000
43140,-9999.000
43200,-9999.000
43260,-9999.000
43320,-9999.000
43380,-9999.000
43440,-9999.000
43500,-9999.000
43560,-9999.000
43620,-9999.000
43680,-9999.000
43740,-9999.000
43800,-9999.000
43860,-9999.000
43920,-9999.000
43980,-9999.000
44040,-9999.000
44100,-9999.000
44160,-9999.000
44220,-9999.000
44280,-9999.000
44340,-9999.000
44400,-9999.000
44460,-9999.000
44520,-9999.000
44580,-9999.000
44640,-9999.000
44700,-9999.000
44760,-9999.000
44820,-9999.000
44880,-9999.000
44940,-9999.000
45000,-9999.000
45060,-9999.000
45120,-9999.000
45180,-9999.000
45240,-9999.000
45300,-9999.000
45360,-9999.000
45420,-9999.000
45480,-9999.000
45540,-9999.000
45600,-9999.000
45660,-9999.000
45720,-9999.000
45780,-9999.000
45840,-9999.000
45900,-9999.000
45960,-9999.000
46020,-9999.000
46080,-9999.000
46140,-9999.000
46200,-9999.000
46260,-9999.000
46320,-9999.000
46380,-9999.000
46440,-9999.000
46500,-9999.000
46560,-9999.000
46620,-9999.000
46680,-9999.000
46740,-9999.000
46800,-9999.000
46860,-9999.000
46920,-9999.000
46980,-9999.000
47040,-9999.000
47100,-9999.000
47160,-9999.000
47220,-9999.000
47280,-9999.000
47340,-9999.000
47400,-9999.000
47460,-9999.000
47520,-9999.000
47580,-9999.000
47640,-9999.000
47700,-9999.000
47760,-9999.000
47820,-9999.000
47880,-9999.000
47940,-9999.000
48000,-9999.000
48060,-9999.000
48120,-9999.000
48180,-9999.000
48240,-9999.000
48300,-9999.000
48360,-9999.000
48420,-9999.000
48480,-9999.000
48540,-9999.000
48600,-9999.000
48660,-9999.000
48720,-9999.000
48780,-9999.000
48840,-9999.000
48900,-9999.000
48960,-9999.000
49020,-9999.000
49080,-9999.000
49140,-9999.000
49200,-9999.000
49260,-9999.000
49320,-9999.000
49380,-9999.000
49440,-9999.000
49500,-9999.000
49560,-9999.000
49620,-9999.000
49680,-9999.000
49740,-9999.000
49800,-9999.000
49860,-9999.000
49920,-9999.000
49980,-9999.000
50040,-9999.000
50100,-9999.000
50160,-9999.000
50220,-9999.000
50280,-9999.000
50340,-9999.000
50400,-9999.000
50460,-9999.000
50520,-9999.000
50580,-9999.000
50640,-9999.000
50700,-9999.000
50760,-9999.000
50820,-9999.000
50880,-9999.000
50940,-9999.000
51000,-9999.000
51060,-9999.000
51120,-9999.000
51180,-9999.000
51240,-9999.000
51300,-9999.000
51360,-9999.000
51420,-9999.000
51480,-9999.000
51540,-9999.000
51600,-9999.000
51660,-9999.000
51720,-9999.000
51780,-9999.000
51840,-9999.000
51900,-9999.000
51960,-9999.000
52020,-9999.000
52080,-9999.000
52140,-9999.000
52200,-9999.000
52260,-9999.000
52320,-9999.000
52380,-9999.000
52440,-9999.000
52500,-9999.000
52560,-9999.000
52620,-9999.000
52680,-9999.000
52740,-9999.000
52800,-9999.000
52860,-9999.000
52920,1.161
52980,1.092
53040,0.689
53100,1.323
53160,1.231
53220,0.356
53280,1.153
53340,0.788
53400,0.833
53460,1.211
53520,0.567
53580,1.095
53640,0.684
53700,0.306
53760,0.441
53820,1.454
53880,0.583
53940,0.357
54000,0.768
54060,0.769
54120,-0.022
54180,0.080
54240,0.482
54300,0.805
54360,0.258
54420,0.170
54480,0.195
54540,0.598
54600,0.413
54660,0.891
54720,0.380
54780,0.631
54840,1.162
54900,0.059
54960,-0.084
55020,-0.024
55080,0.300
55140,0.175
55200,-0.044
55260,0.107
55320,0.055
55380,0.627
55440,0.266
55500,0.043
55560,0.278
55620,0.908
55680,0.049
55740,0.334
55800,0.226
55860,0.015
55920,0.455
55980,0.814
56040,1.425
56100,1.157
56160,0.270
56220,0.394
56280,0.469
56340,0.431
56400,0.281
56460,0.236
56520,0.215
56580,0.442
56640,0.287
56700,0.741
56760,0.348
56820,0.406
56880,0.106
56940,0.740
57000,0.109
57060,0.074
57120,0.111
57180,0.208
57240,0.386
57300,0.247
57360,0.491
57420,0.211
57480,0.315
57540,0.129
57600,0.117
57660,0.112
57720,0.224
57780,0.130
57840,0.105
57900,0.368
57960,0.328
58020,0.141
58080,0.154
58140,0.280
58200,-0.041
58260,0.303
58320,0.158
58380,0.243
58440,0.024
58500,0.321
58560,0.151
58620,0.204
58680,0.208
58740,0.372
58800,0.049
58860,0.157
58920,0.482
58980,0.588
59040,0.426
59100,0.296
59160,0.277
59220,0.530
59280,0.295
59340,0.628
59400,0.918
59460,0.798
59520,0.096
59580,0.207
59640,0.391
59700,0.517
59760,0.537
59820,0.264
59880,0.124
59940,0.606
60000,0.517
60060,0.520
60120,0.207
60180,0.780
60240,-9999.000
60300,0.196
60360,0.642
60420,0.669
60480,1.036
60540,0.183
60600,0.815
60660,0.555
60720,0.420
60780,0.329
60840,0.431
60900,0.430
60960,0.448
61020,0.202
61080,0.642
61140,0.707
61200,1.213
61260,0.490
61320,0.543
61380,0.831
61440,0.519
61500,0.408
61560,0.532
61620,0.194
61680,0.333
61740,0.714
61800,0.565
61860,0.679
61920,0.583
61980,0.973
62040,0.573
62100,0.683
62160,0.744
62220,0.353
62280,0.473
62340,0.390
62400,0.610
62460,0.455
62520,0.755
62580,1.082
62640,0.850
62700,0.784
62760,0.632
62820,0.414
62880,0.391
62940,0.790
63000,0.765
63060,0.496
63120,0.420
63180,0.481
63240,0.811
63300,0.368
63360,0.767
63420,0.572
63480,0.730
63540,0.795
63600,0.819
63660,0.209
63720,0.587
63780,0.724
63840,0.570
63900,0.617
63960,0.605
64020,0.685
64080,0.748
64140,0.459
64200,0.781
64260,0.481
64320,0.602
64380,0.604
64440,0.932
64500,0.417
64560,0.249
64620,0.486
64680,0.300
64740,0.253
64800,0.342
64860,0.373
64920,0.191
64980,0.422
65040,0.503
65100,0.398
65160,0.612
65220,0.403
65280,0.698
65340,0.538
65400,0.418
65460,0.444
65520,0.560
65580,0.574
65640,0.419
65700,0.495
65760,0.379
65820,0.898
65880,0.231
65940,0.392
66000,0.484
66060,0.401
66120,0.421
66180,0.196
66240,0.394
66300,0.541
66360,0.303
66420,0.496
66480,0.450
66540,0.305
66600,0.394
66660,0.437
66720,0.489
66780,0.132
66840,0.620
66900,0.137
66960,0.234
67020,-9999.000
67080,-9999.000
67140,-9999.000
67200,0.726
67260,0.504
67320,0.583
67380,0.374
67440,0.444
67500,0.592
67560,0.452
67620,0.038
67680,0.500
67740,0.482
67800,0.232
67860,0.433
67920,0.322
67980,0.289
68040,0.473
68100,0.407
68160,0.868
68220,0.627
68280,1.128
68340,0.548
68400,0.505
68460,0.524
68520,0.384
68580,0.597
68640,0.620
68700,0.344
68760,0.567
68820,0.732
68880,0.768
68940,0.725
69000,0.479
69060,0.541
69120,0.601
69180,0.515
69240,0.550
69300,0.558
69360,0.428
69420,0.786
69480,0.635
69540,0.676
69600,0.674
69660,0.418
69720,0.521
69780,0.711
69840,0.341
69900,0.543
69960,0.722
70020,0.444
70080,0.760
70140,0.517
70200,0.492
70260,0.514
70320,0.334
70380,0.764
70440,0.603
70500,0.632
70560,0.807
70620,0.557
70680,0.543
70740,0.595
70800,0.497
70860,0.668
70920,0.750
70980,0.467
71040,0.665
71100,0.766
71160,0.714
71220,0.776
71280,0.543
71340,0.615
71400,0.595
71460,0.558
71520,0.660
71580,0.549
71640,0.691
71700,0.659
71760,0.461
71820,0.528
71880,0.725
71940,0.845
72000,0.521
72060,0.810
72120,0.750
72180,0.610
72240,0.680
72300,0.698
72360,0.722
72420,0.812
72480,0.851
72540,0.665
72600,0.863
72660,1.033
72720,0.737
72780,0.758
72840,0.507
72900,0.801
72960,1.051
73020,0.946
73080,0.678
73140,0.683
73200,0.622
73260,0.767
73320,0.979
73380,0.711
73440,0.559
73500,0.518
73560,0.787
73620,0.508
73680,0.447
73740,0.403
73800,0.468
73860,0.621
73920,0.841
73980,0.559
74040,0.715
74100,0.460
74160,0.813
74220,0.795
74280,0.548
74340,0.408
74400,0.975
74460,0.804
74520,0.624
74580,0.467
74640,0.513
74700,0.826
74760,0.703
74820,0.527
74880,0.436
74940,0.854
75000,0.577
75060,0.582
75120,0.672
75180,0.787
75240,0.547
75300,0.741
75360,0.477
75420,0.575
75480,0.370
75540,0.589
75600,0.598
75660,0.796
75720,0.464
75780,0.544
75840,0.479
75900,0.416
75960,0.280
76020,0.435
76080,0.370
76140,0.472
76200,0.333
76260,0.579
76320,0.345
76380,0.536
76440,0.524
76500,0.442
76560,0.528
76620,0.519
76680,0.239
76740,0.423
76800,0.322
76860,0.636
76920,0.506
76980,0.294
77040,0.451
77100,0.373
77160,0.350
77220,0.510
77280,0.470
77340,0.521
77400,0.687
77460,0.377
77520,0.387
77580,0.384
77640,0.549
77700,0.353
77760,0.326
77820,0.296
77880,0.481
77940,0.215
78000,0.383
78060,0.301
78120,0.377
78180,0.333
78240,0.415
78300,0.291
78360,0.482
78420,0.303
78480,0.377
78540,0.538
78600,0.468
78660,0.259
78720,0.574
78780,0.255
78840,0.199
78900,0.409
78960,0.324
79020,0.300
79080,0.334
79140,0.556
79200,0.352
79260,0.326
79320,0.325
79380,0.155
79440,0.483
79500,0.362
79560,0.412
79620,0.421
79680,0.256
79740,0.395
79800,0.239
79860,0.208
79920,0.232
79980,0.363
80040,0.466
80100,0.476
80160,0.200
80220,0.221
80280,0.298
80340,0.374
80400,0.296
80460,0.225
80520,0.362
80580,0.272
80640,0.380
80700,0.275
80760,0.236
80820,0.237
80880,0.256
80940,0.242
81000,-9999.000
81060,0.200
81120,0.333
81180,0.229
81240,0.166
81300,0.241
81360,0.306
81420,0.254
81480,0.234
81540,0.216
81600,0.269
81660,0.264
81720,0.282
81780,0.245
81840,0.203
81900,0.139
81960,0.135
82020,0.204
82080,0.119
82140,0.160
82200,0.095
82260,0.222
82320,0.214
82380,0.121
82440,0.181
82500,0.348
82560,0.161
82620,0.293
82680,0.232
82740,0.059
82800,0.162
82860,0.073
82920,0.239
82980,0.148
83040,0.173
83100,0.304
83160,0.132
83220,0.203
83280,0.133
83340,0.284
83400,0.241
83460,0.178
83520,0.163
83580,0.229
83640,0.129
83700,0.112
83760,0.115
83820,0.081
83880,0.038
83940,0.052
84000,0.142
84060,0.216
84120,0.055
84180,0.163
84240,0.103
84300,0.130
84360,0.165
84420,0.287
84480,0.221
84540,0.130
84600,0.221
84660,0.140
84720,0.213
84780,0.203
84840,0.163
84900,0.084
84960,0.135
85020,0.160
85080,0.295
85140,0.166
85200,0.251
85260,0.249
85320,0.160
85380,0.188
85440,0.203
85500,0.098
85560,0.190
85620,0.244
85680,0.212
85740,0.291
85800,0.188
85860,0.340
85920,0.402
85980,0.260
86040,0.296
86100,0.149
86160,0.277
86220,0.252
86280,0.267
86340,0.321
