34, 1001
Michael A Robinson, Chris Jernigan, Subi Thakali
NOAA ESRL Chemical Sciences Laboratory and CIRES, U. of Colorado
NOAA Iodide CIMS Instrument
USOS
1, 1
2024, 07, 15, 2024, 07, 17
0
starttime_UTC, seconds_past_midnight, seconds_of_day_since_00:00:00_UTC
1
1
-9999
HNO3_NOAACIMS, pptv, Gas_HNO3_InSitu_S_AVMR
1
N/A
18
PI_CONTACT_INFO: 325 Broadway, R/CSD 7, Boulder, Colorado 80305; michael.a.robinson@noaa.gov; chris.jernigan@noaa.gov;
PLATFORM: NOAA CSL Mobile Lab
LOCATION: SLC, Utah
ASSOCIATED_DATA: 1Hz data also available on request.
INSTRUMENT_INFO: NOAA I- ToF CIMS
DATA_INFO: Units: pptv
UNCERTAINTY: tbd
ULOD_FLAG: -7777
ULOD_VALUE: N/A
LLOD_FLAG: -8888
LLOD_VALUE: N/A
DM_CONTACT_INFO: Nathan Howard; nathan.h.howard@noaa.gov
PROJECT_INFO: USOS, summer 2024. https://csl.noaa.gov/groups/csl7/measurements/2024usos/
STIPULATIONS_ON_USE: only the USOS science team is allowed to use this data
OTHER_COMMENTS: Field data; Data are averaged to 1 minute intervals. Stationary data collected from a 10 ft tower on top of the mobile lab
REVISION: RA
RA: Preliminary Data; For in-field use only
starttime_UTC, HNO3_NOAACIMS
0,-9999.000
60,-9999.000
120,-9999.000
180,-9999.000
240,-9999.000
300,-9999.000
360,-9999.000
420,-9999.000
480,-9999.000
540,-9999.000
600,-9999.000
660,-9999.000
720,-9999.000
780,-9999.000
840,-9999.000
900,-9999.000
960,-9999.000
1020,-9999.000
1080,-9999.000
1140,-9999.000
1200,-9999.000
1260,-9999.000
1320,-9999.000
1380,-9999.000
1440,-9999.000
1500,-9999.000
1560,-9999.000
1620,-9999.000
1680,-9999.000
1740,-9999.000
1800,-9999.000
1860,-9999.000
1920,-9999.000
1980,-9999.000
2040,-9999.000
2100,-9999.000
2160,-9999.000
2220,-9999.000
2280,-9999.000
2340,-9999.000
2400,-9999.000
2460,-9999.000
2520,-9999.000
2580,-9999.000
2640,-9999.000
2700,-9999.000
2760,-9999.000
2820,-9999.000
2880,-9999.000
2940,-9999.000
3000,-9999.000
3060,-9999.000
3120,-9999.000
3180,-9999.000
3240,-9999.000
3300,-9999.000
3360,-9999.000
3420,-9999.000
3480,-9999.000
3540,-9999.000
3600,-9999.000
3660,-9999.000
3720,-9999.000
3780,-9999.000
3840,-9999.000
3900,-9999.000
3960,-9999.000
4020,-9999.000
4080,-9999.000
4140,-9999.000
4200,-9999.000
4260,-9999.000
4320,-9999.000
4380,-9999.000
4440,-9999.000
4500,-9999.000
4560,-9999.000
4620,-9999.000
4680,-9999.000
4740,-9999.000
4800,-9999.000
4860,-9999.000
4920,-9999.000
4980,-9999.000
5040,-9999.000
5100,-9999.000
5160,-9999.000
5220,-9999.000
5280,-9999.000
5340,-9999.000
5400,-9999.000
5460,-9999.000
5520,-9999.000
5580,-9999.000
5640,-9999.000
5700,-9999.000
5760,-9999.000
5820,-9999.000
5880,-9999.000
5940,-9999.000
6000,-9999.000
6060,-9999.000
6120,-9999.000
6180,-9999.000
6240,-9999.000
6300,-9999.000
6360,-9999.000
6420,-9999.000
6480,-9999.000
6540,-9999.000
6600,-9999.000
6660,-9999.000
6720,-9999.000
6780,-9999.000
6840,-9999.000
6900,-9999.000
6960,-9999.000
7020,-9999.000
7080,-9999.000
7140,-9999.000
7200,-9999.000
7260,-9999.000
7320,-9999.000
7380,-9999.000
7440,-9999.000
7500,-9999.000
7560,-9999.000
7620,-9999.000
7680,-9999.000
7740,-9999.000
7800,-9999.000
7860,-9999.000
7920,-9999.000
7980,-9999.000
8040,-9999.000
8100,-9999.000
8160,-9999.000
8220,-9999.000
8280,-9999.000
8340,-9999.000
8400,-9999.000
8460,-9999.000
8520,-9999.000
8580,-9999.000
8640,-9999.000
8700,-9999.000
8760,-9999.000
8820,-9999.000
8880,-9999.000
8940,-9999.000
9000,-9999.000
9060,-9999.000
9120,-9999.000
9180,-9999.000
9240,-9999.000
9300,-9999.000
9360,-9999.000
9420,-9999.000
9480,-9999.000
9540,-9999.000
9600,-9999.000
9660,-9999.000
9720,-9999.000
9780,-9999.000
9840,-9999.000
9900,-9999.000
9960,-9999.000
10020,-9999.000
10080,-9999.000
10140,-9999.000
10200,-9999.000
10260,-9999.000
10320,-9999.000
10380,-9999.000
10440,-9999.000
10500,-9999.000
10560,-9999.000
10620,-9999.000
10680,-9999.000
10740,-9999.000
10800,-9999.000
10860,-9999.000
10920,-9999.000
10980,-9999.000
11040,-9999.000
11100,-9999.000
11160,-9999.000
11220,-9999.000
11280,-9999.000
11340,-9999.000
11400,-9999.000
11460,-9999.000
11520,-9999.000
11580,-9999.000
11640,-9999.000
11700,-9999.000
11760,-9999.000
11820,-9999.000
11880,-9999.000
11940,-9999.000
12000,-9999.000
12060,-9999.000
12120,-9999.000
12180,-9999.000
12240,-9999.000
12300,-9999.000
12360,-9999.000
12420,-9999.000
12480,-9999.000
12540,-9999.000
12600,-9999.000
12660,-9999.000
12720,-9999.000
12780,-9999.000
12840,-9999.000
12900,-9999.000
12960,-9999.000
13020,-9999.000
13080,-9999.000
13140,-9999.000
13200,-9999.000
13260,-9999.000
13320,-9999.000
13380,-9999.000
13440,-9999.000
13500,-9999.000
13560,-9999.000
13620,-9999.000
13680,-9999.000
13740,-9999.000
13800,-9999.000
13860,-9999.000
13920,-9999.000
13980,-9999.000
14040,-9999.000
14100,-9999.000
14160,-9999.000
14220,-9999.000
14280,-9999.000
14340,-9999.000
14400,-9999.000
14460,-9999.000
14520,-9999.000
14580,-9999.000
14640,-9999.000
14700,-9999.000
14760,-9999.000
14820,-9999.000
14880,-9999.000
14940,-9999.000
15000,-9999.000
15060,-9999.000
15120,-9999.000
15180,-9999.000
15240,-9999.000
15300,-9999.000
15360,-9999.000
15420,-9999.000
15480,-9999.000
15540,-9999.000
15600,-9999.000
15660,-9999.000
15720,-9999.000
15780,-9999.000
15840,-9999.000
15900,-9999.000
15960,-9999.000
16020,-9999.000
16080,-9999.000
16140,-9999.000
16200,-9999.000
16260,-9999.000
16320,-9999.000
16380,-9999.000
16440,-9999.000
16500,-9999.000
16560,-9999.000
16620,-9999.000
16680,-9999.000
16740,-9999.000
16800,-9999.000
16860,-9999.000
16920,-9999.000
16980,-9999.000
17040,-9999.000
17100,-9999.000
17160,-9999.000
17220,-9999.000
17280,-9999.000
17340,-9999.000
17400,-9999.000
17460,-9999.000
17520,-9999.000
17580,-9999.000
17640,-9999.000
17700,-9999.000
17760,-9999.000
17820,-9999.000
17880,-9999.000
17940,-9999.000
18000,-9999.000
18060,-9999.000
18120,-9999.000
18180,-9999.000
18240,-9999.000
18300,-9999.000
18360,-9999.000
18420,-9999.000
18480,-9999.000
18540,-9999.000
18600,-9999.000
18660,-9999.000
18720,-9999.000
18780,-9999.000
18840,-9999.000
18900,-9999.000
18960,-9999.000
19020,-9999.000
19080,-9999.000
19140,-9999.000
19200,-9999.000
19260,-9999.000
19320,-9999.000
19380,-9999.000
19440,-9999.000
19500,-9999.000
19560,-9999.000
19620,-9999.000
19680,-9999.000
19740,-9999.000
19800,-9999.000
19860,-9999.000
19920,-9999.000
19980,-9999.000
20040,-9999.000
20100,-9999.000
20160,-9999.000
20220,-9999.000
20280,-9999.000
20340,-9999.000
20400,-9999.000
20460,-9999.000
20520,-9999.000
20580,-9999.000
20640,-9999.000
20700,-9999.000
20760,-9999.000
20820,-9999.000
20880,-9999.000
20940,-9999.000
21000,-9999.000
21060,-9999.000
21120,-9999.000
21180,-9999.000
21240,-9999.000
21300,-9999.000
21360,-9999.000
21420,-9999.000
21480,-9999.000
21540,-9999.000
21600,-9999.000
21660,-9999.000
21720,-9999.000
21780,-9999.000
21840,-9999.000
21900,-9999.000
21960,-9999.000
22020,-9999.000
22080,-9999.000
22140,-9999.000
22200,-9999.000
22260,-9999.000
22320,-9999.000
22380,-9999.000
22440,-9999.000
22500,-9999.000
22560,-9999.000
22620,-9999.000
22680,-9999.000
22740,-9999.000
22800,-9999.000
22860,-9999.000
22920,-9999.000
22980,-9999.000
23040,-9999.000
23100,-9999.000
23160,-9999.000
23220,-9999.000
23280,-9999.000
23340,-9999.000
23400,-9999.000
23460,-9999.000
23520,-9999.000
23580,-9999.000
23640,-9999.000
23700,-9999.000
23760,-9999.000
23820,-9999.000
23880,-9999.000
23940,-9999.000
24000,-9999.000
24060,-9999.000
24120,-9999.000
24180,-9999.000
24240,-9999.000
24300,-9999.000
24360,-9999.000
24420,-9999.000
24480,-9999.000
24540,-9999.000
24600,-9999.000
24660,-9999.000
24720,-9999.000
24780,-9999.000
24840,-9999.000
24900,-9999.000
24960,-9999.000
25020,-9999.000
25080,-9999.000
25140,-9999.000
25200,-9999.000
25260,-9999.000
25320,-9999.000
25380,-9999.000
25440,-9999.000
25500,-9999.000
25560,-9999.000
25620,-9999.000
25680,-9999.000
25740,-9999.000
25800,-9999.000
25860,-9999.000
25920,-9999.000
25980,-9999.000
26040,-9999.000
26100,-9999.000
26160,-9999.000
26220,-9999.000
26280,-9999.000
26340,-9999.000
26400,-9999.000
26460,-9999.000
26520,-9999.000
26580,-9999.000
26640,-9999.000
26700,-9999.000
26760,-9999.000
26820,-9999.000
26880,-9999.000
26940,-9999.000
27000,-9999.000
27060,-9999.000
27120,-9999.000
27180,-9999.000
27240,-9999.000
27300,-9999.000
27360,-9999.000
27420,-9999.000
27480,-9999.000
27540,-9999.000
27600,-9999.000
27660,-9999.000
27720,-9999.000
27780,-9999.000
27840,-9999.000
27900,-9999.000
27960,-9999.000
28020,-9999.000
28080,-9999.000
28140,-9999.000
28200,-9999.000
28260,-9999.000
28320,-9999.000
28380,-9999.000
28440,-9999.000
28500,-9999.000
28560,-9999.000
28620,-9999.000
28680,-9999.000
28740,-9999.000
28800,-9999.000
28860,-9999.000
28920,-9999.000
28980,-9999.000
29040,-9999.000
29100,-9999.000
29160,-9999.000
29220,-9999.000
29280,-9999.000
29340,-9999.000
29400,-9999.000
29460,-9999.000
29520,-9999.000
29580,-9999.000
29640,-9999.000
29700,-9999.000
29760,-9999.000
29820,-9999.000
29880,-9999.000
29940,-9999.000
30000,-9999.000
30060,-9999.000
30120,-9999.000
30180,-9999.000
30240,-9999.000
30300,-9999.000
30360,-9999.000
30420,-9999.000
30480,-9999.000
30540,-9999.000
30600,-9999.000
30660,-9999.000
30720,-9999.000
30780,-9999.000
30840,-9999.000
30900,-9999.000
30960,-9999.000
31020,-9999.000
31080,-9999.000
31140,-9999.000
31200,-9999.000
31260,-9999.000
31320,-9999.000
31380,-9999.000
31440,-9999.000
31500,-9999.000
31560,-9999.000
31620,-9999.000
31680,-9999.000
31740,-9999.000
31800,-9999.000
31860,-9999.000
31920,-9999.000
31980,-9999.000
32040,-9999.000
32100,-9999.000
32160,-9999.000
32220,-9999.000
32280,-9999.000
32340,-9999.000
32400,-9999.000
32460,-9999.000
32520,-9999.000
32580,-9999.000
32640,-9999.000
32700,-9999.000
32760,-9999.000
32820,-9999.000
32880,-9999.000
32940,-9999.000
33000,-9999.000
33060,-9999.000
33120,-9999.000
33180,-9999.000
33240,-9999.000
33300,-9999.000
33360,-9999.000
33420,-9999.000
33480,-9999.000
33540,-9999.000
33600,-9999.000
33660,-9999.000
33720,-9999.000
33780,-9999.000
33840,-9999.000
33900,-9999.000
33960,-9999.000
34020,-9999.000
34080,-9999.000
34140,-9999.000
34200,-9999.000
34260,-9999.000
34320,-9999.000
34380,-9999.000
34440,-9999.000
34500,-9999.000
34560,-9999.000
34620,-9999.000
34680,-9999.000
34740,-9999.000
34800,-9999.000
34860,-9999.000
34920,-9999.000
34980,-9999.000
35040,-9999.000
35100,-9999.000
35160,-9999.000
35220,-9999.000
35280,-9999.000
35340,-9999.000
35400,-9999.000
35460,-9999.000
35520,-9999.000
35580,-9999.000
35640,-9999.000
35700,-9999.000
35760,-9999.000
35820,-9999.000
35880,-9999.000
35940,-9999.000
36000,-9999.000
36060,-9999.000
36120,-9999.000
36180,-9999.000
36240,-9999.000
36300,-9999.000
36360,-9999.000
36420,-9999.000
36480,-9999.000
36540,-9999.000
36600,-9999.000
36660,-9999.000
36720,-9999.000
36780,-9999.000
36840,-9999.000
36900,-9999.000
36960,-9999.000
37020,-9999.000
37080,-9999.000
37140,-9999.000
37200,-9999.000
37260,-9999.000
37320,-9999.000
37380,-9999.000
37440,-9999.000
37500,-9999.000
37560,-9999.000
37620,-9999.000
37680,-9999.000
37740,-9999.000
37800,-9999.000
37860,-9999.000
37920,-9999.000
37980,-9999.000
38040,-9999.000
38100,-9999.000
38160,-9999.000
38220,-9999.000
38280,-9999.000
38340,-9999.000
38400,-9999.000
38460,-9999.000
38520,-9999.000
38580,-9999.000
38640,-9999.000
38700,-9999.000
38760,-9999.000
38820,-9999.000
38880,-9999.000
38940,-9999.000
39000,-9999.000
39060,-9999.000
39120,-9999.000
39180,-9999.000
39240,-9999.000
39300,-9999.000
39360,-9999.000
39420,-9999.000
39480,-9999.000
39540,-9999.000
39600,-9999.000
39660,-9999.000
39720,-9999.000
39780,-9999.000
39840,-9999.000
39900,-9999.000
39960,-9999.000
40020,-9999.000
40080,-9999.000
40140,-9999.000
40200,-9999.000
40260,-9999.000
40320,-9999.000
40380,-9999.000
40440,-9999.000
40500,-9999.000
40560,-9999.000
40620,-9999.000
40680,-9999.000
40740,-9999.000
40800,-9999.000
40860,-9999.000
40920,-9999.000
40980,-9999.000
41040,-9999.000
41100,-9999.000
41160,-9999.000
41220,-9999.000
41280,-9999.000
41340,-9999.000
41400,-9999.000
41460,-9999.000
41520,-9999.000
41580,-9999.000
41640,-9999.000
41700,-9999.000
41760,-9999.000
41820,-9999.000
41880,-9999.000
41940,-9999.000
42000,-9999.000
42060,-9999.000
42120,-9999.000
42180,-9999.000
42240,-9999.000
42300,-9999.000
42360,-9999.000
42420,-9999.000
42480,-9999.000
42540,-9999.000
42600,-9999.000
42660,-9999.000
42720,-9999.000
42780,-9999.000
42840,-9999.000
42900,-9999.000
42960,-9999.000
43020,-9999.000
43080,-9999.000
43140,-9999.000
43200,-9999.000
43260,-9999.000
43320,-9999.000
43380,-9999.000
43440,-9999.000
43500,-9999.000
43560,-9999.000
43620,-9999.000
43680,-9999.000
43740,-9999.000
43800,-9999.000
43860,-9999.000
43920,-9999.000
43980,-9999.000
44040,-9999.000
44100,-9999.000
44160,-9999.000
44220,-9999.000
44280,-9999.000
44340,-9999.000
44400,-9999.000
44460,-9999.000
44520,-9999.000
44580,-9999.000
44640,-9999.000
44700,-9999.000
44760,-9999.000
44820,-9999.000
44880,-9999.000
44940,-9999.000
45000,-9999.000
45060,-9999.000
45120,-9999.000
45180,-9999.000
45240,-9999.000
45300,-9999.000
45360,-9999.000
45420,-9999.000
45480,-9999.000
45540,-9999.000
45600,-9999.000
45660,-9999.000
45720,-9999.000
45780,-9999.000
45840,-9999.000
45900,-9999.000
45960,-9999.000
46020,-9999.000
46080,-9999.000
46140,-9999.000
46200,-9999.000
46260,-9999.000
46320,-9999.000
46380,-9999.000
46440,-9999.000
46500,-9999.000
46560,-9999.000
46620,-9999.000
46680,-9999.000
46740,-9999.000
46800,-9999.000
46860,-9999.000
46920,-9999.000
46980,-9999.000
47040,-9999.000
47100,-9999.000
47160,-9999.000
47220,-9999.000
47280,-9999.000
47340,-9999.000
47400,-9999.000
47460,-9999.000
47520,-9999.000
47580,-9999.000
47640,-9999.000
47700,-9999.000
47760,-9999.000
47820,-9999.000
47880,-9999.000
47940,-9999.000
48000,-9999.000
48060,-9999.000
48120,-9999.000
48180,-9999.000
48240,-9999.000
48300,-9999.000
48360,-9999.000
48420,-9999.000
48480,-9999.000
48540,-9999.000
48600,-9999.000
48660,-9999.000
48720,-9999.000
48780,-9999.000
48840,-9999.000
48900,-9999.000
48960,-9999.000
49020,-9999.000
49080,-9999.000
49140,-9999.000
49200,-9999.000
49260,-9999.000
49320,-9999.000
49380,-9999.000
49440,-9999.000
49500,-9999.000
49560,-9999.000
49620,-9999.000
49680,-9999.000
49740,-9999.000
49800,-9999.000
49860,-9999.000
49920,-9999.000
49980,-9999.000
50040,-9999.000
50100,-9999.000
50160,-9999.000
50220,-9999.000
50280,-9999.000
50340,-9999.000
50400,-9999.000
50460,-9999.000
50520,-9999.000
50580,-9999.000
50640,-9999.000
50700,-9999.000
50760,-9999.000
50820,-9999.000
50880,-9999.000
50940,-9999.000
51000,-9999.000
51060,-9999.000
51120,-9999.000
51180,-9999.000
51240,-9999.000
51300,-9999.000
51360,-9999.000
51420,-9999.000
51480,-9999.000
51540,-9999.000
51600,-9999.000
51660,839.171
51720,792.181
51780,714.672
51840,708.886
51900,670.551
51960,657.098
52020,597.085
52080,550.485
52140,521.042
52200,538.149
52260,544.872
52320,545.605
52380,537.806
52440,513.988
52500,494.556
52560,503.541
52620,512.602
52680,556.365
52740,569.522
52800,571.132
52860,-9999.000
52920,858.434
52980,751.106
53040,743.476
53100,747.968
53160,720.466
53220,716.247
53280,725.956
53340,730.379
53400,724.872
53460,712.591
53520,718.416
53580,681.883
53640,639.225
53700,630.785
53760,623.977
53820,617.121
53880,605.917
53940,582.231
54000,581.549
54060,576.618
54120,592.409
54180,566.406
54240,569.123
54300,582.709
54360,609.666
54420,653.592
54480,672.157
54540,697.390
54600,727.378
54660,763.699
54720,1183.725
54780,1185.001
54840,1171.836
54900,1142.393
54960,1135.594
55020,1100.630
55080,1007.542
55140,949.093
55200,986.064
55260,993.449
55320,953.487
55380,903.616
55440,908.313
55500,901.953
55560,864.466
55620,861.067
55680,853.571
55740,888.117
55800,921.409
55860,945.476
55920,958.006
55980,950.465
56040,950.592
56100,920.442
56160,925.133
56220,915.822
56280,891.145
56340,881.124
56400,891.783
56460,916.374
56520,912.243
56580,1342.823
56640,1347.404
56700,1261.135
56760,1280.709
56820,1293.082
56880,1250.685
56940,1199.072
57000,1237.104
57060,1237.028
57120,1183.327
57180,1151.715
57240,1152.003
57300,1078.679
57360,1034.701
57420,954.119
57480,892.512
57540,882.404
57600,901.666
57660,864.978
57720,877.437
57780,918.627
57840,940.228
57900,914.444
57960,956.745
58020,923.096
58080,924.522
58140,992.541
58200,1036.273
58260,1028.349
58320,1028.501
58380,1051.648
58440,1269.671
58500,1179.040
58560,1031.332
58620,988.641
58680,1133.095
58740,1140.687
58800,1170.037
58860,1064.130
58920,937.169
58980,865.177
59040,842.214
59100,818.260
59160,1032.477
59220,943.185
59280,916.676
59340,842.173
59400,952.672
59460,924.392
59520,869.313
59580,899.286
59640,874.104
59700,929.750
59760,924.167
59820,998.773
59880,1005.429
59940,1062.164
60000,1061.912
60060,969.146
60120,1031.299
60180,1140.436
60240,-9999.000
60300,1244.511
60360,1222.803
60420,1149.273
60480,1127.776
60540,1270.381
60600,1345.574
60660,1405.080
60720,1471.212
60780,1448.046
60840,1394.993
60900,1424.945
60960,1513.698
61020,1277.273
61080,1451.652
61140,1762.414
61200,1672.955
61260,1733.333
61320,1683.771
61380,1571.866
61440,1521.970
61500,1384.020
61560,1449.242
61620,1397.277
61680,1434.727
61740,1558.457
61800,1603.747
61860,1413.845
61920,1320.782
61980,1315.734
62040,1434.330
62100,1314.944
62160,1165.697
62220,1210.620
62280,1177.508
62340,1147.520
62400,1206.776
62460,1184.651
62520,1104.581
62580,1157.443
62640,1197.400
62700,1165.374
62760,1091.375
62820,1140.040
62880,1215.565
62940,1192.444
63000,1269.781
63060,1406.910
63120,1467.275
63180,1548.409
63240,1496.711
63300,1354.765
63360,1247.137
63420,1135.387
63480,1088.523
63540,1152.423
63600,1193.743
63660,1207.292
63720,1327.167
63780,1485.219
63840,1546.209
63900,1501.671
63960,1405.131
64020,1424.933
64080,1544.036
64140,1501.378
64200,1516.271
64260,1598.712
64320,1417.603
64380,1478.687
64440,1639.513
64500,1642.539
64560,1651.325
64620,1674.788
64680,1742.000
64740,1696.291
64800,1580.218
64860,1486.809
64920,1486.643
64980,1610.333
65040,1648.207
65100,1583.253
65160,1543.993
65220,1418.438
65280,1418.965
65340,1375.906
65400,1318.346
65460,1255.329
65520,1239.196
65580,1105.957
65640,967.422
65700,872.325
65760,795.983
65820,870.034
65880,848.874
65940,840.116
66000,833.879
66060,930.189
66120,895.005
66180,886.957
66240,779.647
66300,789.600
66360,845.717
66420,828.156
66480,872.541
66540,863.712
66600,830.319
66660,798.362
66720,833.149
66780,741.069
66840,757.829
66900,915.914
66960,887.819
67020,826.420
67080,858.044
67140,782.710
67200,777.026
67260,932.156
67320,1003.895
67380,965.949
67440,1019.389
67500,984.251
67560,1027.120
67620,1082.313
67680,1054.645
67740,1048.873
67800,914.915
67860,870.826
67920,853.114
67980,820.818
68040,908.133
68100,889.506
68160,774.935
68220,718.542
68280,746.618
68340,741.975
68400,728.333
68460,646.456
68520,591.620
68580,586.431
68640,571.995
68700,616.292
68760,628.628
68820,687.059
68880,732.003
68940,763.529
69000,724.154
69060,785.384
69120,770.403
69180,799.895
69240,787.650
69300,848.423
69360,826.235
69420,710.869
69480,644.698
69540,653.659
69600,703.421
69660,721.295
69720,672.524
69780,667.147
69840,675.581
69900,706.453
69960,796.346
70020,770.849
70080,764.285
70140,862.925
70200,874.637
70260,861.494
70320,866.486
70380,933.312
70440,920.039
70500,904.814
70560,900.019
70620,1021.445
70680,1016.477
70740,1031.668
70800,900.296
70860,804.227
70920,754.844
70980,745.424
71040,711.214
71100,697.757
71160,712.069
71220,683.539
71280,671.860
71340,688.182
71400,834.020
71460,849.513
71520,790.639
71580,744.937
71640,741.155
71700,724.754
71760,710.100
71820,708.441
71880,758.199
71940,722.028
72000,739.163
72060,705.963
72120,691.953
72180,696.453
72240,667.543
72300,657.373
72360,672.817
72420,690.907
72480,667.213
72540,669.856
72600,651.988
72660,673.178
72720,712.256
72780,693.229
72840,629.844
72900,695.966
72960,731.696
73020,717.154
73080,696.618
73140,713.142
73200,752.842
73260,779.996
73320,774.875
73380,791.884
73440,750.231
73500,738.803
73560,687.220
73620,699.665
73680,662.420
73740,659.740
73800,631.759
73860,606.846
73920,625.457
73980,645.955
74040,647.120
74100,667.474
74160,683.180
74220,699.325
74280,670.235
74340,631.354
74400,693.024
74460,645.506
74520,632.389
74580,712.810
74640,754.800
74700,827.822
74760,901.401
74820,908.042
74880,905.134
74940,857.068
75000,844.801
75060,961.864
75120,945.397
75180,956.195
75240,862.775
75300,775.287
75360,772.064
75420,790.497
75480,749.418
75540,746.557
75600,721.412
75660,757.233
75720,793.027
75780,784.180
75840,788.296
75900,876.998
75960,881.939
76020,819.387
76080,775.266
76140,773.059
76200,789.759
76260,764.476
76320,755.278
76380,728.679
76440,734.086
76500,715.015
76560,694.177
76620,697.212
76680,715.152
76740,712.298
76800,760.051
76860,744.573
76920,689.535
76980,690.577
77040,643.207
77100,627.804
77160,643.749
77220,660.833
77280,674.996
77340,629.980
77400,644.826
77460,665.973
77520,631.123
77580,653.031
77640,627.862
77700,598.622
77760,605.741
77820,603.307
77880,580.406
77940,547.515
78000,570.949
78060,550.276
78120,571.144
78180,558.508
78240,553.901
78300,537.542
78360,557.897
78420,574.246
78480,521.045
78540,486.443
78600,463.986
78660,449.214
78720,453.152
78780,453.434
78840,437.281
78900,450.641
78960,454.508
79020,447.762
79080,456.813
79140,452.377
79200,487.805
79260,457.417
79320,451.962
79380,460.646
79440,498.155
79500,473.634
79560,457.788
79620,502.754
79680,475.202
79740,462.767
79800,450.928
79860,430.372
79920,428.784
79980,407.865
80040,412.994
80100,425.258
80160,420.911
80220,432.988
80280,452.911
80340,459.577
80400,472.304
80460,486.016
80520,530.181
80580,542.621
80640,541.070
80700,496.105
80760,468.247
80820,446.659
80880,452.724
80940,447.172
81000,-9999.000
81060,472.826
81120,523.059
81180,544.697
81240,564.531
81300,567.122
81360,569.704
81420,571.166
81480,526.970
81540,533.167
81600,569.589
81660,557.223
81720,495.209
81780,472.698
81840,473.783
81900,435.362
81960,441.580
82020,415.800
82080,430.498
82140,420.824
82200,414.450
82260,435.196
82320,466.482
82380,508.186
82440,526.969
82500,524.322
82560,519.659
82620,493.765
82680,458.683
82740,478.953
82800,484.612
82860,494.070
82920,532.819
82980,497.628
83040,466.706
83100,463.788
83160,494.733
83220,492.057
83280,549.107
83340,528.791
83400,510.505
83460,484.051
83520,474.778
83580,455.452
83640,423.744
83700,428.928
83760,451.848
83820,419.104
83880,426.069
83940,440.600
84000,452.570
84060,467.581
84120,495.509
84180,474.522
84240,447.996
84300,445.953
84360,462.311
84420,475.569
84480,466.771
84540,453.614
84600,443.117
84660,461.824
84720,481.835
84780,503.897
84840,489.837
84900,497.765
84960,498.876
85020,509.559
85080,500.351
85140,480.778
85200,484.557
85260,476.076
85320,459.037
85380,442.476
85440,468.227
85500,453.564
85560,435.190
85620,462.112
85680,476.548
85740,464.112
85800,461.077
85860,502.186
85920,505.654
85980,526.836
86040,526.668
86100,519.082
86160,553.750
86220,514.829
86280,475.555
86340,479.852
