37, 1001
Michael A Robinson, Chris Jernigan, Subi Thakali
NOAA ESRL Chemical Sciences Laboratory and CIRES, U. of Colorado
NOAA Iodide CIMS Instrument
USOS
1, 1
2024, 08, 02, 2024, 08, 03
1
starttime_UTC, seconds_past_midnight, seconds_of_day_since_00:00:00_UTC
5
1, 1, 1, 1, 1
-9999, -9999, -9999, -9999, -9999
C4H7NO5_NOAACIMS, pptv, Gas_C4H7NO5_InSitu_S_AVMR, 
ISOPN_NOAACIMS, pptv, Gas_ISOPN_InSitu_S_AVMR, 
C5H10O3_NOAACIMS, pptv, Gas_C5H10O3_InSitu_S_AVMR, 
C5H9NO5_NOAACIMS, pptv, Gas_C5H9NO5_InSitu_S_AVMR, 
C10H17NO4_NOAACIMS, pptv, Gas_C10H17NO4_InSitu_S_AVMR, 
0
18
PI_CONTACT_INFO: 325 Broadway, R/CSD 7, Boulder, Colorado 80305; michael.a.robinson@noaa.gov; chris.jernigan@noaa.gov;
PLATFORM: NOAA CSL Mobile Lab
LOCATION: SLC, Utah
ASSOCIATED_DATA: 1Hz data also available on request.
INSTRUMENT_INFO: NOAA I- ToF CIMS
DATA_INFO: All data in parts per trillion by volume (pptv). 1 Hz data is available upon request.
UNCERTAINTY: TBD
ULOD_FLAG: -7777
ULOD_VALUE: N/A
LLOD_FLAG: -8888
LLOD_VALUE: N/A
DM_CONTACT_INFO: Nathan Howard; nathan.h.howard@noaa.gov
PROJECT_INFO: USOS, summer 2024. https://csl.noaa.gov/groups/csl7/measurements/2024usos/
STIPULATIONS_ON_USE: Users are strongly encouraged to contact the PI for proper data usage.
OTHER_COMMENTS: 
REVISION: RA
RA: Preliminary Data; For in-field use only
starttime_UTC, C4H7NO5_NOAACIMS, ISOPN_NOAACIMS, C5H10O3_NOAACIMS, C5H9NO5_NOAACIMS, C10H17NO4_NOAACIMS
     0, -9999.000, -9999.000, -9999.000, -9999.000, -9999.000
    60, -9999.000, -9999.000, -9999.000, -9999.000, -9999.000
   120, -9999.000, -9999.000, -9999.000, -9999.000, -9999.000
   180, -9999.000, -9999.000, -9999.000, -9999.000, -9999.000
   240, -9999.000, -9999.000, -9999.000, -9999.000, -9999.000
   300, -9999.000, -9999.000, -9999.000, -9999.000, -9999.000
   360, -9999.000, -9999.000, -9999.000, -9999.000, -9999.000
   420, -9999.000, -9999.000, -9999.000, -9999.000, -9999.000
   480, -9999.000, -9999.000, -9999.000, -9999.000, -9999.000
   540, -9999.000, -9999.000, -9999.000, -9999.000, -9999.000
   600, -9999.000, -9999.000, -9999.000, -9999.000, -9999.000
   660, -9999.000, -9999.000, -9999.000, -9999.000, -9999.000
   720, -9999.000, -9999.000, -9999.000, -9999.000, -9999.000
   780, -9999.000, -9999.000, -9999.000, -9999.000, -9999.000
   840, -9999.000, -9999.000, -9999.000, -9999.000, -9999.000
   900, -9999.000, -9999.000, -9999.000, -9999.000, -9999.000
   960, -9999.000, -9999.000, -9999.000, -9999.000, -9999.000
  1020, -9999.000, -9999.000, -9999.000, -9999.000, -9999.000
  1080, -9999.000, -9999.000, -9999.000, -9999.000, -9999.000
  1140, -9999.000, -9999.000, -9999.000, -9999.000, -9999.000
  1200, -9999.000, -9999.000, -9999.000, -9999.000, -9999.000
  1260, -9999.000, -9999.000, -9999.000, -9999.000, -9999.000
  1320, -9999.000, -9999.000, -9999.000, -9999.000, -9999.000
  1380, -9999.000, -9999.000, -9999.000, -9999.000, -9999.000
  1440, -9999.000, -9999.000, -9999.000, -9999.000, -9999.000
  1500, -9999.000, -9999.000, -9999.000, -9999.000, -9999.000
  1560, -9999.000, -9999.000, -9999.000, -9999.000, -9999.000
  1620, -9999.000, -9999.000, -9999.000, -9999.000, -9999.000
  1680, -9999.000, -9999.000, -9999.000, -9999.000, -9999.000
  1740, -9999.000, -9999.000, -9999.000, -9999.000, -9999.000
  1800, -9999.000, -9999.000, -9999.000, -9999.000, -9999.000
  1860, -9999.000, -9999.000, -9999.000, -9999.000, -9999.000
  1920, -9999.000, -9999.000, -9999.000, -9999.000, -9999.000
  1980, -9999.000, -9999.000, -9999.000, -9999.000, -9999.000
  2040, -9999.000, -9999.000, -9999.000, -9999.000, -9999.000
  2100,  2.516,  4.757, 35.657, -0.302, -0.027
  2160,  2.855,  5.693, 35.119,  0.089,  0.035
  2220, -9999.000, -9999.000, -9999.000, -9999.000, -9999.000
  2280, -9999.000, -9999.000, -9999.000, -9999.000, -9999.000
  2340, -9999.000, -9999.000, -9999.000, -9999.000, -9999.000
  2400, -9999.000, -9999.000, -9999.000, -9999.000, -9999.000
  2460, -9999.000, -9999.000, -9999.000, -9999.000, -9999.000
  2520, -9999.000, -9999.000, -9999.000, -9999.000, -9999.000
  2580, -9999.000, -9999.000, -9999.000, -9999.000, -9999.000
  2640, -9999.000, -9999.000, -9999.000, -9999.000, -9999.000
  2700, -9999.000, -9999.000, -9999.000, -9999.000, -9999.000
  2760, -9999.000, -9999.000, -9999.000, -9999.000, -9999.000
  2820, -9999.000, -9999.000, -9999.000, -9999.000, -9999.000
  2880, -9999.000, -9999.000, -9999.000, -9999.000, -9999.000
  2940, -9999.000, -9999.000, -9999.000, -9999.000, -9999.000
  3000, -9999.000, -9999.000, -9999.000, -9999.000, -9999.000
  3060, -9999.000, -9999.000, -9999.000, -9999.000, -9999.000
  3120, -9999.000, -9999.000, -9999.000, -9999.000, -9999.000
  3180, -9999.000, -9999.000, -9999.000, -9999.000, -9999.000
  3240, -9999.000, -9999.000, -9999.000, -9999.000, -9999.000
  3300, -9999.000, -9999.000, -9999.000, -9999.000, -9999.000
  3360, -9999.000, -9999.000, -9999.000, -9999.000, -9999.000
  3420, -9999.000, -9999.000, -9999.000, -9999.000, -9999.000
  3480, -9999.000, -9999.000, -9999.000, -9999.000, -9999.000
  3540, -9999.000, -9999.000, -9999.000, -9999.000, -9999.000
  3600, -9999.000, -9999.000, -9999.000, -9999.000, -9999.000
  3660, -9999.000, -9999.000, -9999.000, -9999.000, -9999.000
  3720, -9999.000, -9999.000, -9999.000, -9999.000, -9999.000
  3780, -9999.000, -9999.000, -9999.000, -9999.000, -9999.000
  3840, -9999.000, -9999.000, -9999.000, -9999.000, -9999.000
  3900, -9999.000, -9999.000, -9999.000, -9999.000, -9999.000
  3960, -9999.000, -9999.000, -9999.000, -9999.000, -9999.000
  4020, -9999.000, -9999.000, -9999.000, -9999.000, -9999.000
  4080, -9999.000, -9999.000, -9999.000, -9999.000, -9999.000
  4140, -9999.000, -9999.000, -9999.000, -9999.000, -9999.000
  4200, -9999.000, -9999.000, -9999.000, -9999.000, -9999.000
  4260, -9999.000, -9999.000, -9999.000, -9999.000, -9999.000
  4320,  4.206,  8.124, 21.321,  2.206,  0.095
  4380,  4.414,  8.929, 26.281,  2.468,  0.192
  4440,  4.379,  8.713, 24.426,  2.502,  0.107
  4500,  4.377,  8.728, 24.936,  2.495,  0.116
  4560,  4.273,  8.618, 22.918,  2.402,  0.134
  4620,  4.219,  7.890, 23.302,  2.388,  0.101
  4680,  4.238,  7.461, 20.820,  2.356,  0.189
  4740,  4.271,  8.115, 23.276,  2.398,  0.107
  4800,  4.286,  7.582, 21.404,  2.500,  0.163
  4860,  4.370,  7.698, 23.097,  2.436,  0.137
  4920,  4.381,  8.680, 22.612,  2.370,  0.133
  4980,  4.445,  8.298, 23.285,  2.244,  0.169
  5040,  4.346,  7.713, 22.429,  2.440,  0.089
  5100,  4.439,  8.026, 23.015,  2.654,  0.198
  5160,  4.405,  8.363, 23.423,  2.652,  0.162
  5220,  4.349,  8.985, 24.961,  2.344,  0.123
  5280,  4.380,  8.733, 24.712,  2.579,  0.158
  5340,  4.492,  9.468, 28.105,  2.628,  0.119
  5400,  4.499,  9.597, 25.596,  2.561,  0.109
  5460,  4.350,  9.339, 25.655,  2.618,  0.186
  5520,  4.473,  9.736, 26.487,  2.559,  0.165
  5580,  4.442,  9.759, 26.372,  2.594,  0.167
  5640,  4.532,  9.871, 27.556,  2.884,  0.219
  5700,  4.522,  9.796, 28.648,  2.681,  0.186
  5760,  4.505,  9.615, 27.508,  2.717,  0.134
  5820,  4.445,  9.843, 28.559,  2.627,  0.205
  5880,  4.410,  9.991, 28.358,  2.867,  0.157
  5940, -9999.000, -9999.000, -9999.000, -9999.000, -9999.000
  6000,  4.449, 10.554, 26.329,  2.919,  0.195
  6060,  4.480, 10.358, 27.467,  2.774,  0.168
  6120,  4.503, 10.715, 28.315,  2.848,  0.251
  6180,  4.540, 11.117, 30.392,  2.791,  0.188
  6240,  4.565, 10.866, 30.231,  2.815,  0.230
  6300,  4.643, 11.103, 30.604,  2.745,  0.174
  6360,  4.594, 11.537, 31.246,  2.927,  0.163
  6420,  4.719, 11.803, 31.938,  3.026,  0.253
  6480,  4.514, 11.432, 31.726,  2.764,  0.246
  6540,  4.485, 10.985, 31.081,  3.116,  0.225
  6600,  4.507, 11.106, 30.700,  2.843,  0.265
  6660,  4.478, 11.337, 32.006,  2.905,  0.183
  6720,  4.627, 11.617, 31.903,  3.154,  0.180
  6780,  4.477, 11.458, 33.610,  3.046,  0.187
  6840,  4.541, 11.927, 32.287,  3.027,  0.131
  6900,  4.516, 11.753, 33.429,  2.819,  0.177
  6960,  4.610, 11.990, 33.737,  3.079,  0.146
  7020,  4.653, 11.518, 33.676,  3.140,  0.146
  7080,  4.645, 11.699, 34.506,  3.211,  0.127
  7140,  4.620, 11.955, 34.397,  3.101,  0.197
  7200,  4.655, 11.872, 35.900,  3.155,  0.169
  7260,  4.628, 11.720, 34.786,  3.159,  0.113
  7320,  4.743, 12.115, 35.058,  3.305,  0.117
  7380,  4.628, 12.102, 35.233,  3.116,  0.138
  7440,  4.739, 12.043, 36.822,  3.332,  0.083
  7500,  4.709, 11.934, 36.486,  3.298,  0.162
  7560,  4.713, 12.430, 37.368,  3.374,  0.121
  7620,  4.684, 11.968, 37.034,  3.228,  0.151
  7680,  4.804, 12.213, 38.038,  3.513,  0.123
  7740,  4.817, 11.783, 38.281,  3.731,  0.037
  7800,  4.569, 10.805, 32.461,  3.469,  0.105
  7860,  4.630, 12.070, 34.640,  3.472,  0.072
  7920,  4.715, 12.366, 35.965,  3.619,  0.179
  7980,  4.768, 12.391, 36.311,  3.606,  0.116
  8040,  4.767, 12.606, 37.167,  3.841,  0.194
  8100,  4.787, 12.498, 38.170,  3.690,  0.094
  8160,  4.793, 12.632, 36.420,  3.897,  0.109
  8220,  4.837, 13.049, 37.374,  3.944,  0.097
  8280,  4.809, 13.166, 36.563,  3.997,  0.182
  8340,  4.920, 13.938, 41.645,  3.973,  0.228
  8400,  4.957, 14.183, 40.032,  4.094,  0.190
  8460,  4.873, 13.901, 40.396,  4.134,  0.270
  8520,  4.978, 13.593, 40.874,  4.160,  0.353
  8580,  5.022, 14.581, 40.696,  4.447,  0.300
  8640,  5.084, 14.520, 42.074,  4.292,  0.448
  8700,  4.983, 14.365, 41.491,  4.442,  0.310
  8760,  4.951, 13.917, 41.009,  4.422,  0.350
  8820,  5.122, 14.346, 42.018,  4.637,  0.399
  8880,  5.056, 14.012, 42.743,  4.607,  0.381
  8940,  4.984, 14.079, 41.718,  4.612,  0.378
  9000,  4.920, 13.448, 40.900,  4.696,  0.412
  9060,  5.051, 13.617, 41.563,  4.730,  0.469
  9120,  5.002, 14.334, 42.663,  4.815,  0.424
  9180,  5.006, 13.894, 42.810,  4.883,  0.463
  9240,  5.102, 13.997, 43.820,  5.040,  0.472
  9300,  4.945, 13.728, 41.063,  4.962,  0.456
  9360,  5.027, 13.531, 40.849,  5.033,  0.556
  9420,  5.034, 14.107, 42.124,  5.133,  0.498
  9480,  5.102, 14.386, 41.930,  5.332,  0.561
  9540,  5.113, 14.705, 44.016,  5.554,  0.561
  9600,  5.220, 15.818, 46.454,  5.039,  0.682
  9660,  4.876, 14.691, 40.019,  5.247,  0.317
  9720,  4.907, 14.921, 42.774,  5.344,  0.499
  9780,  4.937, 15.851, 46.489,  5.600,  0.595
  9840,  4.781, 16.252, 47.890,  5.742,  0.532
  9900,  4.729, 16.528, 49.253,  5.589,  0.521
  9960,  4.622, 16.377, 49.992,  5.293,  0.541
 10020,  4.623, 16.451, 50.105,  5.773,  0.581
 10080,  4.366, 16.090, 49.609,  5.440,  0.506
 10140,  4.460, 15.969, 51.053,  5.519,  0.576
 10200,  4.252, 15.733, 51.059,  5.121,  0.557
 10260,  4.213, 15.308, 50.558,  5.374,  0.635
 10320,  4.098, 15.372, 50.497,  5.377,  0.603
 10380,  3.708, 14.559, 51.600,  4.935,  0.549
 10440,  3.652, 14.457, 50.739,  4.879,  0.573
 10500,  3.672, 13.913, 49.611,  4.676,  0.543
 10560,  3.558, 14.609, 50.817,  5.043,  0.615
 10620,  3.485, 13.844, 51.311,  4.898,  0.538
 10680,  3.449, 14.353, 54.263,  5.206,  0.571
 10740,  3.441, 14.570, 52.658,  5.003,  0.576
 10800,  3.453, 14.688, 53.852,  5.258,  0.686
 10860,  3.346, 15.084, 54.781,  5.334,  0.615
 10920,  3.267, 14.041, 53.494,  5.322,  0.598
 10980,  3.241, 14.349, 54.975,  5.202,  0.638
 11040,  3.137, 14.435, 54.763,  5.362,  0.590
 11100,  3.123, 15.331, 54.524,  5.550,  0.729
 11160,  3.228, 14.472, 52.499,  5.073,  0.781
 11220,  3.137, 14.997, 53.685,  5.313,  0.581
 11280,  3.188, 14.457, 52.431,  5.187,  0.629
 11340,  3.197, 14.628, 52.907,  5.379,  0.601
 11400,  3.190, 14.582, 53.325,  5.304,  0.614
 11460,  3.073, 15.609, 54.933,  5.262,  0.676
 11520,  3.132, 15.343, 50.197,  5.183,  0.609
 11580,  3.334, 15.201, 51.714,  5.433,  0.660
 11640,  3.296, 15.371, 52.582,  5.394,  0.690
 11700,  3.275, 14.935, 52.401,  5.363,  0.604
 11760,  3.324, 15.775, 52.833,  5.507,  0.656
 11820,  3.377, 16.103, 52.716,  5.539,  0.605
 11880,  3.356, 16.230, 51.198,  5.527,  0.614
 11940,  3.336, 16.600, 52.532,  5.571,  0.664
 12000,  3.438, 16.450, 53.130,  5.521,  0.602
 12060,  3.508, 16.269, 52.495,  5.120,  0.635
 12120,  3.547, 15.984, 52.318,  5.265,  0.589
 12180,  3.534, 16.056, 51.994,  5.302,  0.612
 12240,  3.442, 15.523, 51.352,  5.361,  0.574
 12300,  3.634, 16.262, 53.700,  5.432,  0.604
 12360,  3.564, 16.801, 51.396,  5.260,  0.636
 12420,  3.627, 16.391, 52.277,  5.264,  0.529
 12480,  3.612, 16.480, 51.815,  5.485,  0.662
 12540,  3.718, 16.370, 53.734,  5.360,  0.644
 12600,  3.797, 16.612, 54.448,  5.177,  0.654
 12660,  3.727, 16.932, 54.038,  5.234,  0.670
 12720,  3.796, 17.190, 55.997,  5.261,  0.485
 12780,  3.860, 17.844, 57.033,  5.296,  0.681
 12840,  3.895, 17.582, 57.162,  5.255,  0.472
 12900,  3.987, 18.124, 58.371,  5.251,  0.557
 12960,  3.947, 18.460, 59.750,  5.472,  0.571
 13020,  3.983, 18.346, 58.848,  5.453,  0.590
 13080,  3.993, 18.704, 60.663,  5.297,  0.492
 13140,  4.134, 18.199, 60.772,  5.376,  0.564
 13200,  4.106, 18.054, 62.770,  5.239,  0.574
 13260,  4.087, 17.591, 62.333,  5.512,  0.566
 13320, -9999.000, -9999.000, -9999.000, -9999.000, -9999.000
 13380,  3.764, 17.721, 50.424,  5.043,  0.409
 13440,  4.028, 18.212, 56.415,  5.334,  0.532
 13500,  4.073, 18.588, 58.666,  5.422,  0.615
 13560,  4.034, 18.858, 57.851,  5.562,  0.625
 13620,  4.130, 18.436, 58.813,  5.327,  0.561
 13680,  4.200, 17.672, 60.017,  5.420,  0.607
 13740,  3.970, 17.583, 59.898,  5.479,  0.561
 13800,  4.020, 17.329, 60.353,  5.322,  0.567
 13860,  4.051, 17.708, 60.467,  5.464,  0.582
 13920,  4.116, 17.355, 60.636,  5.179,  0.493
 13980,  4.129, 18.412, 60.852,  5.402,  0.536
 14040,  4.158, 18.010, 63.366,  5.361,  0.466
 14100,  4.046, 17.910, 61.450,  5.275,  0.519
 14160,  4.119, 17.448, 63.052,  5.309,  0.527
 14220,  4.177, 17.893, 62.304,  5.035,  0.524
 14280,  4.198, 18.093, 64.824,  5.240,  0.600
 14340,  4.195, 18.469, 63.900,  5.141,  0.572
 14400,  4.151, 18.600, 64.896,  5.178,  0.583
 14460,  4.305, 18.825, 67.239,  5.299,  0.566
 14520,  4.133, 18.568, 68.158,  5.342,  0.596
 14580,  4.225, 18.713, 69.618,  5.485,  0.576
 14640,  4.312, 18.940, 69.221,  5.440,  0.566
 14700,  4.360, 19.194, 68.201,  5.363,  0.641
 14760,  4.326, 19.109, 70.858,  5.389,  0.630
 14820,  4.347, 19.659, 68.519,  5.319,  0.615
 14880,  4.375, 18.820, 68.725,  5.573,  0.669
 14940,  4.337, 19.717, 70.908,  5.768,  0.727
 15000,  4.423, 19.254, 71.553,  5.789,  0.707
 15060,  4.295, 18.834, 70.015,  5.967,  0.676
 15120,  4.276, 19.605, 68.747,  6.009,  0.649
 15180, -9999.000, -9999.000, -9999.000, -9999.000, -9999.000
 15240,  4.251, 19.032, 64.116,  5.835,  0.690
 15300,  4.334, 19.210, 67.574,  6.217,  0.735
 15360,  4.372, 19.389, 68.771,  6.045,  0.737
 15420,  4.266, 19.201, 69.121,  5.909,  0.695
 15480,  4.297, 20.064, 70.722,  6.080,  0.833
 15540,  4.310, 19.576, 69.999,  5.711,  0.696
 15600,  4.304, 19.519, 70.398,  6.092,  0.819
 15660,  4.454, 20.175, 74.820,  6.055,  0.635
 15720,  4.604, 20.563, 76.267,  6.365,  0.672
 15780,  4.487, 20.051, 75.501,  6.237,  0.761
 15840,  4.596, 20.968, 77.823,  6.153,  0.727
 15900,  4.537, 20.651, 75.135,  6.084,  0.643
 15960,  4.571, 21.175, 82.301,  6.334,  0.708
 16020,  4.479, 21.072, 76.387,  6.391,  0.701
 16080,  4.622, 21.090, 79.367,  6.423,  0.795
 16140,  4.557, 21.180, 82.908,  6.629,  0.741
 16200,  4.513, 20.926, 79.333,  6.386,  0.724
 16260,  4.609, 21.855, 82.372,  6.525,  0.790
 16320,  4.614, 21.621, 82.735,  6.863,  0.728
 16380,  4.555, 22.082, 85.670,  6.747,  0.776
 16440,  4.644, 21.698, 85.381,  6.717,  0.809
 16500,  4.517, 21.520, 82.948,  6.639,  0.761
 16560,  4.446, 20.935, 79.386,  6.439,  0.774
 16620,  4.388, 21.100, 80.985,  6.618,  0.749
 16680,  4.442, 21.432, 81.024,  6.228,  0.730
 16740,  4.394, 19.870, 78.581,  6.317,  0.842
 16800,  4.326, 20.322, 74.832,  6.244,  0.817
 16860,  4.252, 20.218, 72.447,  6.171,  0.770
 16920,  4.242, 20.401, 73.081,  6.450,  0.911
 16980,  4.160, 21.072, 72.381,  6.784,  0.904
 17040, -9999.000, -9999.000, -9999.000, -9999.000, -9999.000
 17100,  4.027, 18.891, 61.750,  6.233,  0.775
 17160,  4.097, 19.211, 63.438,  6.649,  0.924
 17220,  4.087, 19.916, 65.024,  6.603,  0.822
 17280,  4.149, 19.366, 67.137,  6.701,  0.955
 17340,  4.129, 18.619, 64.150,  6.265,  0.857
 17400,  3.939, 18.237, 59.811,  6.203,  0.909
 17460,  3.861, 17.994, 61.059,  6.077,  0.896
 17520,  3.955, 18.886, 61.461,  6.334,  1.096
 17580,  3.960, 18.997, 60.933,  6.125,  0.929
 17640,  3.924, 18.132, 61.483,  6.504,  1.004
 17700,  3.976, 18.225, 60.557,  6.443,  1.031
 17760,  3.864, 18.135, 59.510,  6.373,  1.050
 17820,  3.963, 18.472, 59.478,  6.472,  1.028
 17880,  3.834, 17.757, 58.203,  6.548,  1.033
 17940,  3.941, 18.265, 58.990,  7.217,  1.074
 18000,  3.934, 18.336, 58.395,  7.532,  1.117
 18060,  4.053, 18.369, 59.340,  8.132,  1.287
 18120,  3.980, 18.359, 58.767,  8.278,  1.303
 18180,  3.876, 18.015, 58.082,  7.497,  1.292
 18240,  3.902, 17.767, 57.327,  7.588,  1.178
 18300,  3.989, 18.042, 55.516,  8.484,  1.251
 18360,  3.889, 17.838, 57.659,  9.077,  1.394
 18420,  3.849, 17.570, 55.715,  8.320,  1.283
 18480,  3.767, 17.071, 53.468,  8.118,  1.421
 18540,  3.790, 16.871, 53.528,  8.023,  1.488
 18600,  3.813, 17.233, 51.960,  8.476,  1.518
 18660,  3.797, 17.272, 53.164,  8.452,  1.467
 18720,  3.717, 17.099, 52.656,  8.094,  1.468
 18780,  3.767, 16.709, 51.110,  8.084,  1.525
 18840,  3.703, 16.995, 51.266,  8.377,  1.383
 18900,  3.603, 16.681, 46.603,  8.492,  1.490
 18960,  3.776, 17.554, 48.873,  8.977,  1.647
 19020,  3.771, 17.073, 49.682,  9.346,  1.716
 19080,  3.717, 16.259, 49.789,  8.699,  1.726
 19140,  3.762, 16.842, 48.221,  8.391,  1.543
 19200,  3.821, 16.576, 49.814,  9.259,  1.875
 19260,  3.838, 16.831, 51.127,  9.192,  1.835
 19320,  3.684, 16.085, 48.949,  8.797,  1.897
 19380,  3.702, 16.411, 48.307,  8.844,  2.015
 19440,  3.678, 15.329, 47.665,  8.808,  1.900
 19500,  3.666, 14.956, 45.187,  8.354,  1.863
 19560,  3.537, 14.856, 42.971,  8.091,  1.723
 19620,  3.533, 15.367, 43.061,  8.034,  1.962
 19680,  3.536, 15.263, 46.661,  8.109,  1.862
 19740,  3.476, 15.081, 46.445,  7.939,  1.674
 19800,  3.445, 14.629, 44.590,  7.388,  1.559
 19860,  3.448, 14.287, 45.331,  7.507,  1.635
 19920,  3.378, 14.248, 43.134,  7.089,  1.652
 19980,  3.395, 14.131, 42.817,  6.805,  1.616
 20040,  3.363, 13.617, 41.774,  6.613,  1.492
 20100,  3.221, 13.131, 42.792,  6.479,  1.321
 20160,  3.180, 13.307, 44.022,  6.228,  1.148
 20220,  3.087, 13.069, 45.943,  5.918,  1.200
 20280,  3.216, 13.389, 46.424,  5.858,  1.074
 20340,  3.112, 13.169, 46.132,  6.009,  1.135
 20400,  3.103, 13.666, 46.256,  5.704,  0.921
 20460,  3.111, 13.236, 48.337,  5.697,  0.848
 20520,  3.017, 12.925, 47.068,  5.429,  0.813
 20580,  3.034, 12.930, 48.336,  5.616,  0.807
 20640,  3.033, 13.112, 50.092,  5.575,  0.867
 20700, -9999.000, -9999.000, -9999.000, -9999.000, -9999.000
 20760,  2.948, 11.728, 43.094,  5.412,  0.753
 20820,  2.976, 12.531, 43.629,  5.361,  0.721
 20880,  3.119, 12.597, 46.055,  5.479,  0.809
 20940,  3.212, 13.153, 46.771,  6.017,  0.970
 21000,  3.194, 13.297, 46.270,  6.368,  0.917
 21060,  3.200, 13.119, 46.165,  6.662,  0.911
 21120,  3.240, 13.770, 51.151,  6.913,  1.059
 21180,  3.286, 13.857, 50.225,  6.946,  1.085
 21240,  3.396, 13.707, 50.819,  7.548,  1.087
 21300,  3.382, 13.988, 50.746,  7.333,  0.991
 21360,  3.376, 14.816, 52.904,  8.013,  1.132
 21420,  3.378, 14.344, 52.897,  8.159,  1.114
 21480,  3.388, 14.124, 51.191,  7.996,  1.048
 21540,  3.308, 13.938, 50.352,  7.614,  1.088
 21600,  3.408, 14.500, 54.286,  7.913,  1.169
 21660,  3.349, 14.180, 51.389,  7.964,  1.080
 21720,  3.344, 13.919, 51.437,  8.102,  1.080
 21780,  3.486, 14.180, 52.520,  8.370,  1.138
 21840,  3.370, 13.854, 51.237,  7.740,  0.939
 21900,  3.274, 13.858, 51.134,  7.821,  1.019
 21960,  3.138, 12.835, 48.677,  7.048,  0.798
 22020,  2.898, 12.171, 46.388,  6.050,  0.700
 22080,  2.856, 11.398, 47.460,  5.710,  0.632
 22140,  2.728, 10.862, 45.568,  5.205,  0.576
 22200,  2.845, 11.298, 44.685,  5.263,  0.424
 22260,  2.831, 11.104, 44.607,  5.239,  0.534
 22320,  2.751, 11.673, 44.452,  5.254,  0.496
 22380,  2.680, 10.787, 41.916,  4.894,  0.391
 22440,  2.611, 10.391, 41.349,  4.816,  0.413
 22500,  2.607, 10.285, 38.866,  4.609,  0.459
 22560, -9999.000, -9999.000, -9999.000, -9999.000, -9999.000
 22620,  2.556, 10.250, 35.150,  4.508,  0.445
 22680,  2.532, 10.083, 38.064,  4.916,  0.621
 22740,  2.623, 10.543, 36.929,  4.853,  0.645
 22800,  2.614, 10.610, 36.618,  5.129,  0.777
 22860,  2.660, 10.345, 35.769,  4.999,  0.729
 22920,  2.709, 10.216, 33.955,  5.030,  0.824
 22980,  2.743, 10.201, 34.525,  5.322,  1.036
 23040,  2.901, 11.100, 34.924,  6.050,  1.223
 23100,  2.967, 10.833, 36.988,  6.432,  1.490
 23160,  2.889, 10.948, 36.081,  6.160,  1.488
 23220,  2.853, 10.985, 35.724,  6.593,  1.342
 23280,  2.846, 10.684, 35.195,  6.076,  1.441
 23340,  2.868, 10.608, 36.134,  6.272,  1.348
 23400,  2.772,  9.838, 33.233,  6.153,  1.433
 23460,  2.772, 10.136, 33.823,  6.003,  1.319
 23520,  2.728,  9.883, 34.203,  5.629,  1.210
 23580,  2.611, 10.296, 36.385,  5.773,  0.892
 23640,  2.670, 10.632, 37.801,  6.005,  0.817
 23700,  2.674, 10.311, 37.409,  5.925,  0.965
 23760,  2.706,  9.602, 35.447,  5.520,  1.174
 23820,  2.541,  9.326, 33.093,  5.645,  1.311
 23880,  2.560,  9.382, 30.948,  5.471,  1.221
 23940,  2.518,  9.260, 30.925,  5.306,  1.168
 24000,  2.536,  9.458, 32.148,  5.185,  1.092
 24060,  2.479,  8.706, 30.972,  4.951,  1.045
 24120,  2.664, 10.551, 36.788,  5.731,  0.947
 24180,  2.823, 11.556, 44.371,  6.545,  0.812
 24240,  2.854, 11.465, 44.834,  6.648,  0.659
 24300,  2.967, 12.280, 47.847,  7.198,  0.701
 24360,  2.897, 11.510, 49.954,  7.012,  0.660
 24420, -9999.000, -9999.000, -9999.000, -9999.000, -9999.000
 24480,  2.778, 11.888, 45.491,  6.546,  0.470
 24540,  2.944, 12.437, 48.949,  7.010,  0.554
 24600,  2.973, 11.844, 48.251,  7.179,  0.465
 24660,  2.967, 11.926, 49.518,  6.957,  0.526
 24720,  2.883, 11.736, 47.902,  6.903,  0.603
 24780,  2.873, 12.049, 46.974,  6.901,  0.588
 24840,  2.959, 11.666, 49.829,  7.063,  0.652
 24900,  3.044, 11.514, 49.286,  6.801,  0.529
 24960,  3.133, 12.604, 53.283,  7.369,  0.770
 25020,  2.862, 11.478, 49.511,  6.500,  0.608
 25080,  2.839, 10.987, 46.158,  6.342,  0.569
 25140,  2.982, 11.758, 50.422,  7.086,  0.654
 25200,  2.988, 11.541, 49.725,  6.957,  0.639
 25260,  3.026, 12.096, 48.821,  6.945,  0.489
 25320,  3.063, 12.092, 52.853,  7.296,  0.563
 25380,  3.038, 11.486, 53.088,  7.128,  0.574
 25440,  2.805,  9.439, 44.250,  6.086,  0.871
 25500,  2.636,  9.044, 39.252,  5.388,  1.161
 25560,  2.565,  9.006, 36.492,  5.605,  1.194
 25620,  2.597,  8.693, 35.814,  5.461,  1.362
 25680,  2.771,  9.351, 35.168,  6.160,  1.398
 25740,  2.732,  8.432, 34.470,  5.905,  1.465
 25800,  2.849,  9.480, 37.878,  6.311,  1.255
 25860,  2.773,  8.922, 34.634,  6.188,  1.515
 25920,  2.957,  9.502, 34.696,  7.002,  1.765
 25980,  3.115, 10.271, 35.891,  7.577,  1.686
 26040,  2.969,  9.604, 36.086,  7.333,  1.492
 26100,  3.026,  9.172, 33.422,  7.417,  1.770
 26160,  2.959,  9.384, 32.536,  7.330,  1.740
 26220,  3.102,  9.671, 32.702,  7.234,  1.770
 26280,  3.014,  9.267, 30.739,  7.121,  1.673
 26340,  3.122,  9.006, 30.089,  7.281,  1.838
 26400,  2.958,  9.209, 31.326,  7.284,  1.893
 26460,  3.030,  9.316, 30.998,  7.396,  1.861
 26520,  3.057,  9.225, 29.737,  7.416,  1.894
 26580,  3.006,  9.298, 30.867,  7.448,  1.837
 26640,  3.028,  8.917, 32.557,  7.523,  1.953
 26700,  2.922,  8.746, 30.830,  7.599,  1.867
 26760,  3.064,  8.976, 30.099,  7.669,  2.000
 26820,  3.063,  8.887, 30.153,  7.323,  1.927
 26880,  2.894,  8.662, 27.488,  7.425,  1.945
 26940,  3.106,  8.908, 30.773,  7.760,  2.090
 27000,  2.992,  9.007, 30.332,  7.606,  1.940
 27060,  2.950,  8.230, 28.075,  7.307,  1.946
 27120,  3.025,  8.954, 29.357,  7.754,  2.134
 27180,  3.045,  8.981, 28.357,  7.799,  2.186
 27240,  3.067,  8.748, 27.013,  8.189,  2.070
 27300,  3.023,  8.730, 28.304,  8.055,  2.130
 27360,  3.045,  8.643, 29.109,  7.764,  2.110
 27420,  2.969,  8.009, 27.980,  7.777,  1.944
 27480,  2.975,  8.623, 27.584,  7.692,  1.978
 27540,  2.990,  8.655, 28.335,  7.683,  1.956
 27600,  2.989,  8.337, 27.179,  7.691,  1.813
 27660,  3.112,  9.177, 27.757,  8.559,  1.989
 27720,  3.175,  9.108, 30.720,  9.148,  2.125
 27780,  3.192,  9.474, 31.032,  9.158,  1.902
 27840,  3.007,  9.014, 29.924,  8.217,  1.828
 27900,  3.031,  8.932, 28.589,  8.198,  1.765
 27960,  3.073,  8.740, 28.075,  9.247,  1.695
 28020,  3.121,  8.541, 28.683,  9.125,  1.610
 28080, -9999.000, -9999.000, -9999.000, -9999.000, -9999.000
 28140,  2.960,  8.242, 23.528,  8.022,  1.210
 28200,  3.220,  8.950, 27.205,  9.733,  1.669
 28260,  3.158,  9.678, 28.872,  9.684,  1.511
 28320,  3.058,  8.508, 27.176,  8.861,  1.455
 28380,  3.218,  9.062, 27.773,  9.328,  1.564
 28440,  3.273,  9.017, 31.130, 10.150,  1.566
 28500,  2.962,  8.722, 29.041,  9.020,  1.493
 28560,  3.207,  8.596, 27.975,  9.833,  1.643
 28620,  3.209,  8.966, 29.498,  9.891,  1.603
 28680,  3.323,  8.773, 29.913,  9.869,  1.457
 28740,  3.097,  8.185, 28.321,  9.079,  1.501
 28800,  3.019,  8.647, 28.924,  9.024,  1.520
 28860,  3.036,  8.262, 28.510,  8.701,  1.455
 28920,  3.297,  8.963, 28.682,  9.763,  1.506
 28980,  3.446,  9.012, 30.807, 10.190,  1.440
 29040,  3.161,  8.441, 28.726,  9.423,  1.343
 29100,  3.100,  8.027, 27.107,  8.763,  1.421
 29160,  3.037,  8.321, 27.774,  8.810,  1.489
 29220,  2.991,  8.083, 26.836,  8.327,  1.373
 29280,  3.065,  8.127, 27.219,  8.750,  1.403
 29340,  3.039,  7.935, 28.102,  8.676,  1.483
 29400,  2.985,  7.394, 25.050,  8.115,  1.198
 29460,  2.912,  7.357, 25.220,  8.168,  1.183
 29520,  3.022,  7.924, 27.410,  8.238,  1.185
 29580,  2.907,  7.721, 26.340,  8.072,  1.389
 29640,  3.017,  7.556, 27.521,  8.169,  1.494
 29700,  2.931,  8.017, 26.021,  7.936,  1.516
 29760,  2.991,  7.766, 26.349,  8.319,  1.493
 29820,  2.913,  7.666, 26.191,  7.926,  1.684
 29880,  2.894,  7.601, 25.843,  8.129,  1.647
 29940,  2.937,  7.939, 25.844,  8.150,  1.843
 30000,  2.955,  7.576, 24.833,  7.806,  1.566
 30060,  2.895,  7.782, 25.350,  8.302,  1.569
 30120,  2.872,  7.420, 24.271,  8.063,  1.533
 30180,  3.075,  7.751, 26.098,  8.229,  1.746
 30240,  3.116,  8.469, 28.853,  9.013,  1.999
 30300,  3.191,  8.186, 28.589,  9.028,  1.966
 30360,  3.135,  8.107, 27.812,  9.112,  2.008
 30420,  3.252,  8.533, 28.165,  9.434,  1.855
 30480,  3.307,  8.468, 27.168,  9.362,  1.813
 30540,  3.200,  8.341, 29.484,  9.237,  1.781
 30600,  3.307,  8.533, 29.484,  9.603,  1.805
 30660,  3.492,  9.308, 30.774, 10.546,  1.861
 30720,  3.301,  8.454, 29.460,  9.391,  1.866
 30780,  3.588, 10.086, 32.061, 10.890,  1.859
 30840,  3.541,  9.485, 32.721, 11.265,  1.857
 30900,  3.254,  8.462, 30.833,  9.807,  1.865
 30960,  3.276,  9.120, 31.886, 10.132,  1.820
 31020,  3.222,  8.473, 29.242,  9.268,  1.736
 31080,  3.243,  8.647, 29.469,  9.432,  1.987
 31140,  3.186,  8.245, 28.538,  9.197,  1.884
 31200,  3.283,  8.900, 28.812,  9.758,  1.903
 31260,  3.329,  8.834, 29.643,  9.755,  2.011
 31320,  3.311,  9.173, 29.907,  9.929,  2.060
 31380,  3.196,  8.391, 28.798,  9.190,  1.884
 31440,  3.131,  7.879, 27.351,  8.902,  1.945
 31500,  3.004,  7.766, 27.160,  8.373,  1.923
 31560,  3.119,  8.282, 27.998,  9.085,  1.952
 31620,  3.109,  8.139, 27.673,  8.719,  1.943
 31680,  2.971,  7.571, 27.577,  8.531,  1.753
 31740,  2.938,  7.375, 26.219,  8.306,  1.740
 31800, -9999.000, -9999.000, -9999.000, -9999.000, -9999.000
 31860,  3.073,  7.831, 23.435,  8.641,  1.749
 31920,  3.178,  8.327, 25.900,  9.499,  1.916
 31980,  3.119,  8.272, 25.691,  9.128,  1.870
 32040,  3.040,  7.600, 24.985,  8.655,  1.936
 32100,  3.075,  7.397, 24.076,  8.343,  1.774
 32160,  3.038,  7.137, 23.644,  8.201,  1.812
 32220,  2.947,  7.003, 23.607,  7.899,  1.948
 32280,  3.004,  7.614, 24.327,  7.929,  2.075
 32340,  3.094,  7.288, 22.974,  8.478,  1.986
 32400,  3.015,  7.175, 23.403,  8.102,  2.047
 32460,  3.060,  7.266, 23.081,  8.111,  2.150
 32520,  3.199,  7.323, 22.823,  8.659,  2.085
 32580,  3.134,  7.638, 23.729,  8.645,  2.104
 32640,  3.154,  7.853, 24.750,  8.849,  2.009
 32700,  3.321,  8.113, 24.058,  9.520,  2.109
 32760,  3.200,  7.586, 22.976,  9.022,  1.963
 32820,  3.277,  8.036, 24.417,  9.066,  2.196
 32880,  3.259,  8.173, 25.951,  8.732,  2.047
 32940,  3.510,  8.676, 26.333, 10.212,  2.099
 33000,  3.544,  8.969, 28.096, 10.381,  2.069
 33060,  3.659,  8.980, 28.163, 10.700,  2.246
 33120,  3.416,  8.397, 26.964, 10.085,  1.956
 33180,  3.341,  8.008, 26.345,  9.204,  1.933
 33240,  3.273,  8.117, 26.232,  9.078,  2.071
 33300,  3.337,  8.066, 26.923,  9.205,  1.967
 33360,  3.452,  8.626, 25.637,  9.506,  1.948
 33420,  3.638,  8.575, 27.842, 10.121,  1.744
 33480,  3.477,  8.771, 28.530,  9.612,  1.898
 33540,  3.437,  8.902, 27.862,  9.662,  1.869
 33600,  3.532,  8.717, 28.808,  9.855,  1.923
 33660,  3.663,  5.644, 20.780,  9.763,  2.920
 33720,  3.548,  8.825, 26.151,  9.782,  1.735
 33780,  3.507,  8.885, 29.415, 10.058,  1.886
 33840,  3.469,  8.588, 28.264,  9.751,  1.882
 33900,  3.484,  8.995, 27.976,  9.231,  1.827
 33960,  3.770,  9.581, 28.590, 10.771,  1.886
 34020,  3.562,  8.756, 28.805, 10.351,  1.879
 34080,  3.740,  9.064, 30.026, 10.350,  1.981
 34140,  3.653,  9.557, 29.742, 10.577,  2.049
 34200,  3.724,  8.953, 29.934, 10.526,  2.037
 34260,  3.748,  9.534, 30.527, 10.720,  1.849
 34320,  3.863,  9.484, 29.861, 10.942,  1.917
 34380,  3.920,  9.279, 30.673, 11.012,  2.045
 34440,  3.839,  9.787, 31.549, 11.064,  1.982
 34500,  3.720,  8.998, 30.585, 10.674,  2.018
 34560,  3.669,  8.470, 28.280,  9.911,  1.855
 34620,  3.529,  8.605, 27.212,  9.300,  1.999
 34680,  3.403,  7.868, 28.003,  9.310,  2.131
 34740,  3.336,  7.801, 26.320,  9.088,  1.984
 34800,  3.319,  7.775, 25.472,  8.545,  2.040
 34860,  3.436,  8.193, 25.987,  8.989,  2.018
 34920,  3.503,  7.972, 25.315,  9.047,  1.802
 34980,  3.512,  8.541, 26.083,  9.069,  1.853
 35040,  3.549,  8.277, 27.326,  9.381,  1.846
 35100,  3.413,  8.165, 26.990,  8.981,  1.979
 35160,  3.586,  8.740, 25.518,  9.435,  1.970
 35220,  3.612,  8.244, 26.872,  9.384,  2.117
 35280,  3.612,  9.178, 28.091,  9.853,  1.984
 35340,  3.641,  8.526, 28.234,  9.626,  2.030
 35400,  3.375,  8.001, 26.192,  8.573,  1.880
 35460,  3.431,  8.116, 25.364,  8.536,  1.935
 35520, -9999.000, -9999.000, -9999.000, -9999.000, -9999.000
 35580,  3.624,  9.132, 32.325,  9.691,  1.354
 35640,  3.547,  8.768, 29.351,  9.282,  1.585
 35700,  3.369,  7.958, 26.253,  8.454,  1.763
 35760,  3.448,  8.477, 26.109,  9.040,  1.924
 35820,  3.298,  7.810, 25.948,  8.268,  1.865
 35880,  3.305,  7.515, 26.098,  8.150,  1.867
 35940,  3.222,  7.152, 26.260,  8.064,  1.966
 36000,  3.234,  7.248, 23.820,  7.793,  1.785
 36060,  3.221,  7.167, 23.372,  7.840,  1.766
 36120,  3.261,  7.726, 25.630,  8.182,  1.952
 36180,  3.312,  7.705, 24.926,  8.109,  2.080
 36240,  3.349,  7.537, 25.012,  8.505,  1.886
 36300,  3.369,  7.366, 24.372,  8.196,  2.021
 36360,  3.343,  7.312, 25.090,  7.893,  1.984
 36420,  3.181,  7.126, 24.101,  7.722,  1.951
 36480,  3.131,  7.045, 23.779,  7.383,  1.828
 36540,  3.179,  6.882, 24.211,  7.428,  1.808
 36600,  3.248,  7.167, 22.676,  7.587,  1.928
 36660,  3.201,  6.969, 22.337,  7.228,  1.884
 36720,  3.254,  6.995, 23.835,  7.295,  2.024
 36780,  3.149,  6.721, 22.936,  7.420,  2.148
 36840,  3.250,  7.077, 23.088,  7.405,  2.026
 36900,  3.325,  7.101, 23.941,  7.776,  1.881
 36960,  3.320,  7.567, 24.510,  8.054,  2.019
 37020,  3.351,  7.406, 25.210,  7.914,  2.117
 37080,  3.323,  6.997, 24.973,  7.739,  2.030
 37140,  3.301,  7.256, 24.382,  7.563,  1.992
 37200,  3.319,  7.062, 23.975,  7.753,  2.102
 37260,  3.210,  7.206, 23.919,  7.309,  2.013
 37320,  3.154,  6.792, 26.063,  7.712,  2.104
 37380,  3.170,  6.929, 23.012,  7.441,  1.855
 37440,  3.219,  7.126, 21.618,  7.545,  2.088
 37500,  3.364,  7.398, 23.513,  7.843,  1.962
 37560,  3.442,  7.680, 25.634,  8.258,  1.917
 37620,  3.403,  7.667, 26.670,  8.586,  1.906
 37680,  3.411,  7.776, 26.095,  8.356,  1.883
 37740,  3.398,  7.428, 25.734,  8.090,  1.789
 37800,  3.426,  7.974, 26.342,  8.296,  1.694
 37860,  3.511,  8.406, 27.338,  8.687,  1.842
 37920,  3.525,  7.931, 27.288,  8.511,  1.939
 37980,  3.455,  7.835, 27.681,  8.555,  1.922
 38040,  3.458,  7.549, 27.306,  8.606,  1.966
 38100,  3.527,  8.036, 27.825,  8.658,  1.920
 38160,  3.468,  8.023, 28.998,  8.417,  1.917
 38220,  3.497,  7.485, 26.277,  8.352,  1.927
 38280,  3.589,  7.844, 27.042,  8.625,  1.942
 38340,  3.556,  7.671, 27.462,  8.573,  1.832
 38400,  3.501,  8.215, 30.680,  8.593,  1.766
 38460,  3.489,  7.864, 29.832,  8.430,  1.798
 38520,  3.581,  7.367, 28.892,  8.722,  1.838
 38580,  3.515,  7.875, 29.315,  8.571,  1.766
 38640,  3.378,  7.014, 28.324,  7.998,  1.789
 38700,  3.303,  7.118, 26.683,  7.460,  1.870
 38760,  3.266,  6.864, 27.157,  7.308,  1.737
 38820,  3.265,  6.354, 26.353,  7.198,  1.809
 38880,  3.203,  6.838, 25.330,  7.195,  1.708
 38940,  3.116,  6.453, 25.970,  6.847,  1.657
 39000,  3.176,  6.309, 25.383,  6.816,  1.690
 39060,  3.213,  6.349, 23.950,  6.615,  1.634
 39120,  3.242,  6.769, 24.404,  7.125,  1.808
 39180, -9999.000, -9999.000, -9999.000, -9999.000, -9999.000
 39240,  3.197,  6.461, 22.771,  6.681,  1.787
 39300,  3.089,  6.584, 23.642,  6.893,  1.698
 39360,  3.184,  6.811, 22.935,  7.287,  1.525
 39420,  3.183,  6.719, 23.587,  7.331,  1.648
 39480,  3.102,  6.377, 23.465,  7.211,  1.765
 39540,  3.164,  6.528, 23.336,  7.321,  1.812
 39600,  3.202,  6.823, 23.124,  7.374,  1.862
 39660,  3.237,  7.431, 24.828,  7.486,  1.711
 39720,  3.323,  7.486, 26.038,  7.851,  1.428
 39780,  3.411,  7.108, 28.872,  7.784,  1.518
 39840,  3.366,  7.850, 28.879,  8.050,  1.608
 39900,  3.773,  9.392, 33.091,  9.611,  1.510
 39960,  3.928, 10.041, 38.953, 10.580,  1.343
 40020,  4.054, 10.536, 44.141, 11.053,  1.453
 40080,  4.133, 10.261, 46.260, 11.300,  1.504
 40140,  4.210, 10.733, 48.323, 11.783,  1.563
 40200,  4.227, 11.049, 50.394, 11.747,  1.483
 40260,  4.181, 10.701, 49.723, 11.329,  1.547
 40320,  4.133, 10.174, 50.891, 11.266,  1.383
 40380,  4.092, 10.497, 53.210, 11.339,  1.393
 40440,  4.161, 10.294, 52.034, 11.178,  1.372
 40500,  4.081, 10.642, 51.690, 11.063,  1.349
 40560,  4.211, 10.133, 48.056, 11.102,  1.483
 40620,  4.397,  9.991, 45.481, 11.106,  1.812
 40680,  4.464,  9.860, 46.044, 11.410,  2.174
 40740,  4.366,  9.286, 42.224, 10.912,  2.106
 40800,  4.394,  9.822, 41.581, 10.917,  2.300
 40860,  4.263,  9.316, 40.711, 10.755,  2.133
 40920,  4.180,  8.969, 40.292, 10.146,  2.217
 40980,  4.241,  9.208, 38.122,  9.883,  2.061
 41040, -9999.000, -9999.000, -9999.000, -9999.000, -9999.000
 41100,  4.193,  9.041, 35.443, 10.366,  2.103
 41160,  4.292,  9.216, 36.661, 10.410,  2.127
 41220,  4.322,  9.035, 39.108, 10.385,  2.159
 41280,  4.116,  8.954, 38.887, 10.145,  2.342
 41340,  4.132,  9.088, 37.802, 10.047,  2.116
 41400,  3.967,  8.883, 36.643,  9.774,  2.286
 41460,  3.609,  7.779, 34.152,  8.486,  1.967
 41520,  3.515,  7.219, 32.941,  8.081,  1.979
 41580,  3.314,  6.922, 30.861,  7.856,  1.888
 41640,  3.808,  8.219, 33.646,  8.746,  2.288
 41700,  3.573,  7.925, 32.743,  8.419,  2.167
 41760,  3.474,  7.331, 28.860,  7.936,  1.834
 41820,  3.540,  7.569, 31.142,  8.178,  1.956
 41880,  3.785,  8.588, 31.115,  9.339,  2.180
 41940,  4.307,  9.063, 32.116, 10.156,  2.219
 42000,  4.142,  8.958, 31.753,  9.643,  2.296
 42060,  4.231,  8.965, 30.839, 10.221,  2.270
 42120,  4.310,  8.667, 33.411, 10.050,  2.390
 42180,  4.232,  8.908, 33.127, 10.276,  2.419
 42240,  4.218,  8.872, 33.802, 10.156,  2.191
 42300,  4.253,  8.535, 34.593, 10.439,  2.174
 42360,  4.200,  8.569, 32.775, 10.252,  2.071
 42420,  4.142,  8.930, 33.283,  9.712,  2.257
 42480,  4.279,  8.612, 34.839, 10.116,  2.224
 42540,  4.412,  8.370, 33.919,  9.953,  2.034
 42600,  4.293,  8.423, 32.218,  9.814,  2.009
 42660,  4.349,  8.261, 32.506,  9.912,  2.132
 42720,  4.296,  8.277, 32.018,  9.736,  2.115
 42780,  4.350,  8.307, 32.930,  9.909,  1.910
 42840,  4.317,  8.386, 32.435, 10.197,  2.052
 42900, -9999.000, -9999.000, -9999.000, -9999.000, -9999.000
 42960,  3.914,  7.888, 25.093,  8.546,  1.571
 43020,  3.828,  7.537, 26.476,  8.495,  1.710
 43080,  3.893,  7.637, 28.590,  8.738,  1.946
 43140,  3.854,  8.131, 28.860,  8.637,  1.925
 43200,  3.946,  7.926, 27.426,  8.899,  1.892
 43260,  3.998,  7.886, 28.482,  9.014,  1.951
 43320,  3.718,  7.104, 27.526,  8.665,  1.896
 43380,  3.784,  7.833, 27.949,  8.604,  1.983
 43440,  3.693,  7.456, 28.912,  8.317,  1.977
 43500,  3.682,  7.298, 26.881,  8.051,  1.842
 43560,  3.743,  7.591, 25.647,  8.229,  1.727
 43620,  3.566,  6.890, 25.818,  7.935,  1.703
 43680,  3.628,  7.144, 26.465,  8.083,  2.003
 43740,  3.631,  7.479, 26.387,  8.314,  1.788
 43800,  3.632,  7.534, 26.096,  8.509,  1.704
 43860,  3.761,  8.409, 31.825,  9.076,  1.672
 43920,  3.930, 10.042, 40.944, 10.628,  1.291
 43980,  4.074,  9.681, 46.834, 11.451,  1.095
 44040,  3.916,  9.696, 47.193, 10.716,  1.159
 44100,  3.819,  9.182, 43.549,  9.810,  1.254
 44160,  3.775,  8.909, 41.664,  9.594,  1.314
 44220,  3.887,  8.987, 42.572, 10.026,  1.372
 44280,  4.039,  9.199, 40.941, 10.061,  1.239
 44340,  4.565,  9.373, 41.717, 10.881,  1.624
 44400,  4.329,  9.008, 40.629, 10.185,  1.513
 44460,  4.297,  8.580, 39.880, 10.063,  1.408
 44520,  4.227,  8.865, 41.638, 10.044,  1.649
 44580,  3.936,  8.432, 38.251,  9.470,  1.606
 44640,  3.936,  8.497, 36.246,  9.408,  1.458
 44700,  3.957,  8.676, 36.521,  9.136,  1.509
 44760,  3.797,  7.824, 30.996,  8.666,  1.515
 44820,  3.733,  8.029, 34.355,  9.124,  1.453
 44880,  3.864,  8.079, 33.737,  9.097,  1.456
 44940,  3.950,  8.352, 34.815,  9.453,  1.577
 45000,  3.891,  7.854, 33.398,  9.163,  1.584
 45060,  3.738,  7.897, 33.325,  8.954,  1.593
 45120,  3.801,  7.904, 33.622,  8.688,  1.520
 45180,  3.968,  8.090, 33.853,  9.284,  1.760
 45240,  4.119,  8.421, 34.223,  9.275,  1.686
 45300,  4.019,  8.228, 34.142,  9.497,  1.717
 45360,  3.997,  7.675, 34.672,  8.788,  1.762
 45420,  3.968,  8.020, 34.459,  9.008,  1.789
 45480,  3.867,  7.773, 32.892,  8.902,  1.664
 45540,  3.798,  7.885, 31.228,  8.645,  1.621
 45600,  3.882,  7.426, 32.782,  8.513,  1.669
 45660,  3.872,  7.478, 32.084,  8.662,  1.665
 45720,  3.899,  7.824, 31.877,  8.609,  1.690
 45780,  3.885,  7.742, 32.735,  8.919,  1.673
 45840,  3.766,  7.315, 31.275,  8.382,  1.593
 45900,  3.839,  7.855, 31.370,  8.587,  1.626
 45960,  3.946,  7.974, 32.528,  8.669,  1.779
 46020,  3.972,  7.874, 32.715,  8.784,  1.706
 46080,  3.898,  7.305, 31.542,  8.456,  1.662
 46140,  3.929,  7.043, 31.768,  8.859,  1.534
 46200,  3.874,  7.369, 32.318,  8.686,  1.590
 46260,  3.822,  7.169, 32.009,  8.551,  1.679
 46320,  3.822,  7.218, 30.715,  8.655,  1.512
 46380,  3.853,  7.174, 30.046,  8.670,  1.541
 46440,  3.922,  7.071, 31.388,  8.551,  1.616
 46500,  3.857,  7.245, 31.383,  8.853,  1.664
 46560, -9999.000, -9999.000, -9999.000, -9999.000, -9999.000
 46620,  3.765,  7.214, 25.018,  7.968,  1.225
 46680,  3.864,  6.644, 27.261,  8.053,  1.403
 46740,  3.758,  6.945, 28.404,  7.978,  1.447
 46800,  3.829,  7.395, 28.233,  8.243,  1.659
 46860,  3.961,  8.428, 29.845,  9.241,  2.104
 46920,  4.154,  8.052, 30.672,  9.745,  2.183
 46980,  4.030,  7.272, 30.037,  9.075,  2.005
 47040,  4.062,  7.372, 31.234,  8.738,  1.943
 47100,  4.019,  7.527, 31.837,  8.830,  1.855
 47160,  3.925,  6.835, 29.309,  8.461,  1.709
 47220,  3.824,  6.741, 28.023,  8.135,  1.555
 47280,  3.912,  6.626, 28.771,  8.264,  1.693
 47340,  3.949,  6.842, 29.459,  8.263,  1.565
 47400,  3.976,  7.007, 28.823,  8.114,  1.579
 47460,  3.987,  6.744, 28.586,  8.030,  1.607
 47520,  3.843,  6.645, 27.541,  8.057,  1.629
 47580,  3.971,  6.688, 27.963,  7.862,  1.533
 47640,  3.908,  6.152, 29.075,  7.980,  1.568
 47700,  3.947,  6.572, 28.199,  7.888,  1.669
 47760,  4.096,  6.884, 28.106,  8.165,  1.402
 47820,  3.953,  6.375, 28.452,  7.830,  1.547
 47880,  4.021,  6.577, 29.411,  7.711,  1.439
 47940,  3.996,  6.301, 28.699,  7.708,  1.599
 48000,  3.871,  5.950, 27.485,  7.605,  1.383
 48060,  3.922,  5.864, 26.354,  7.460,  1.427
 48120,  3.949,  6.154, 27.977,  7.653,  1.437
 48180,  3.981,  6.234, 27.205,  7.705,  1.579
 48240,  4.006,  5.880, 27.152,  7.807,  1.405
 48300,  3.956,  6.243, 26.757,  7.647,  1.436
 48360,  4.051,  5.989, 26.757,  7.943,  1.427
 48420,  4.013,  5.265, 26.257,  7.282,  1.106
 48480,  4.140,  6.885, 25.799,  7.630,  1.328
 48540,  4.155,  6.405, 27.267,  8.168,  1.340
 48600,  4.098,  6.214, 25.889,  7.921,  1.400
 48660,  4.089,  6.294, 25.920,  7.642,  1.260
 48720,  4.244,  6.682, 27.737,  8.075,  1.388
 48780,  4.266,  6.727, 27.335,  8.259,  1.389
 48840,  4.173,  6.565, 26.372,  8.042,  1.453
 48900,  4.221,  6.524, 28.121,  8.021,  1.354
 48960,  4.314,  7.089, 26.559,  7.830,  1.444
 49020,  4.282,  6.673, 26.185,  8.087,  1.315
 49080,  4.288,  7.005, 27.808,  7.783,  1.299
 49140,  4.269,  7.739, 27.196,  8.064,  1.471
 49200,  4.111,  7.190, 25.983,  7.938,  1.343
 49260,  4.108,  7.411, 25.529,  7.749,  1.324
 49320,  4.104,  7.849, 26.921,  7.840,  1.512
 49380,  4.326,  7.299, 26.058,  7.684,  1.253
 49440,  4.313,  7.993, 27.212,  7.809,  1.436
 49500,  4.424,  8.290, 27.610,  8.025,  1.472
 49560,  4.399,  8.072, 26.401,  8.264,  1.232
 49620,  4.382,  8.608, 26.496,  8.037,  1.287
 49680,  4.419,  8.563, 27.200,  7.989,  1.310
 49740,  4.569,  8.519, 27.341,  8.012,  1.449
 49800,  4.584,  9.081, 28.562,  8.144,  1.500
 49860,  4.617,  9.054, 29.715,  8.402,  1.475
 49920,  4.618,  9.179, 27.741,  8.407,  1.339
 49980,  4.684,  9.728, 29.789,  8.331,  1.436
 50040,  4.642,  9.823, 28.224,  8.344,  1.404
 50100,  4.515,  9.291, 28.064,  8.094,  1.525
 50160,  4.730,  9.712, 28.472,  8.288,  1.555
 50220,  4.609, 10.139, 27.173,  8.551,  1.623
 50280, -9999.000, -9999.000, -9999.000, -9999.000, -9999.000
 50340,  4.734, 10.836, 24.064,  8.072,  1.461
 50400,  4.670, 10.266, 25.871,  8.255,  1.445
 50460,  4.680, 10.264, 26.126,  8.162,  1.476
 50520,  4.798, 11.449, 27.220,  8.392,  2.575
 50580,  4.954, 11.607, 28.091,  8.565,  3.077
 50640,  4.887, 11.617, 26.855,  8.174,  2.487
 50700,  4.734, 11.529, 28.984,  8.199,  2.803
 50760,  5.019, 11.764, 28.138,  8.646,  3.098
 50820,  5.006, 11.730, 27.686,  8.371,  2.889
 50880,  5.139, 12.411, 28.525,  8.402,  2.775
 50940,  4.981, 12.161, 28.536,  8.671,  2.321
 51000,  4.940, 12.523, 29.036,  8.440,  2.313
 51060,  5.060, 13.339, 28.966,  8.430,  2.557
 51120,  5.193, 13.015, 28.047,  8.520,  2.652
 51180,  5.452, 15.176, 30.188,  8.618,  2.727
 51240,  5.467, 15.656, 29.104,  8.919,  3.219
 51300,  5.568, 15.118, 30.795,  8.715,  3.002
 51360,  5.755, 14.756, 29.927,  9.174,  2.796
 51420,  5.778, 14.642, 30.928,  8.901,  2.965
 51480,  5.780, 13.994, 31.701,  9.310,  2.835
 51540,  5.890, 14.634, 31.187,  8.967,  2.756
 51600,  6.019, 15.468, 33.366,  9.627,  2.876
 51660,  5.961, 15.719, 32.620,  9.324,  2.903
 51720,  6.178, 16.496, 32.741,  9.167,  3.013
 51780,  6.308, 16.779, 33.451,  9.797,  2.171
 51840,  6.301, 17.069, 34.475,  9.564,  2.266
 51900,  6.410, 17.856, 36.301,  9.743,  2.232
 51960,  6.473, 18.774, 34.072,  9.696,  2.082
 52020,  6.596, 19.485, 34.976,  9.769,  2.316
 52080,  6.710, 19.220, 34.480, 10.041,  2.185
 52140,  6.669, 19.541, 35.417,  9.972,  2.042
 52200,  6.737, 20.403, 34.404,  9.463,  2.309
 52260,  6.568, 20.463, 33.592,  9.611,  2.310
 52320,  6.853, 20.895, 32.054,  9.854,  2.483
 52380,  6.987, 21.556, 32.543,  9.867,  2.305
 52440,  7.191, 21.541, 32.286, 10.277,  2.223
 52500,  7.379, 21.407, 33.833, 10.160,  2.126
 52560,  7.323, 21.222, 31.013, 10.182,  2.068
 52620,  7.423, 21.276, 33.052,  9.875,  2.288
 52680,  7.322, 21.660, 32.085,  9.959,  2.288
 52740,  7.387, 22.315, 32.595, 10.052,  2.264
 52800,  7.605, 22.570, 33.566, 10.276,  2.264
 52860,  7.395, 22.857, 33.272, 10.082,  2.226
 52920,  7.518, 22.442, 33.105, 10.000,  2.137
 52980,  7.356, 23.235, 33.046,  9.939,  2.224
 53040,  7.808, 24.957, 33.737, 10.031,  2.218
 53100,  7.845, 24.642, 34.743, 10.231,  2.125
 53160,  7.804, 24.756, 34.133, 10.329,  2.186
 53220,  8.050, 25.539, 33.480, 10.236,  2.195
 53280,  8.041, 25.729, 35.837, 10.155,  2.465
 53340,  8.155, 25.877, 33.880, 10.308,  2.318
 53400,  8.220, 27.363, 35.785, 10.302,  2.368
 53460,  8.018, 27.388, 35.897, 10.353,  2.445
 53520,  8.378, 26.948, 34.408, 10.454,  2.148
 53580,  8.335, 27.719, 34.128, 10.485,  2.412
 53640,  8.401, 27.032, 35.010, 10.497,  2.319
 53700,  8.679, 28.642, 34.588, 10.406,  2.182
 53760,  8.418, 27.430, 35.182, 10.560,  2.260
 53820,  8.580, 28.735, 35.414, 10.257,  2.237
 53880,  8.880, 28.402, 36.584, 10.860,  2.069
 53940,  8.705, 29.048, 36.689, 10.481,  2.047
 54000,  8.190, 30.917, 30.597,  7.180,  1.632
 54060,  8.770, 29.153, 33.508, 10.136,  1.903
 54120,  8.834, 29.443, 35.276, 10.312,  2.024
 54180,  8.969, 29.874, 36.629, 10.258,  2.080
 54240,  9.185, 30.466, 37.965, 10.300,  1.941
 54300,  9.282, 31.388, 38.397, 10.693,  1.937
 54360,  9.420, 31.662, 41.135, 11.004,  2.153
 54420,  9.567, 32.473, 40.584, 10.654,  2.264
 54480,  9.402, 30.654, 41.039, 10.718,  2.004
 54540,  9.538, 29.966, 41.997, 10.589,  1.869
 54600,  9.613, 30.141, 43.096, 10.900,  1.938
 54660,  9.684, 30.627, 43.603, 10.722,  1.761
 54720,  9.842, 29.985, 44.415, 10.832,  2.002
 54780,  9.918, 31.492, 49.021, 10.949,  2.205
 54840,  9.465, 27.815, 37.964, 10.722,  1.706
 54900,  9.632, 29.625, 46.500, 10.853,  2.445
 54960,  9.443, 27.006, 35.680, 10.559,  1.960
 55020,  9.846, 29.384, 43.124, 10.609,  2.321
 55080,  9.783, 28.309, 37.819, 10.709,  2.031
 55140, 10.235, 30.401, 43.103, 10.519,  2.371
 55200,  9.869, 28.969, 37.587, 10.699,  1.913
 55260, 10.382, 30.620, 43.631, 11.035,  2.260
 55320, 10.146, 30.726, 39.252, 10.775,  2.250
 55380, 10.435, 31.621, 42.864, 11.212,  2.432
 55440, 10.404, 31.552, 38.216, 11.153,  2.319
 55500, 10.535, 32.277, 39.428, 11.068,  2.516
 55560, 10.654, 32.363, 39.123, 11.579,  2.479
 55620, 10.660, 32.064, 39.969, 11.175,  2.298
 55680, 10.846, 32.885, 38.471, 11.237,  2.415
 55740, 11.187, 34.372, 40.174, 11.744,  2.235
 55800, 11.328, 34.392, 41.363, 11.818,  2.617
 55860, 11.270, 33.819, 36.935, 11.603,  1.922
 55920, 11.588, 33.591, 39.219, 11.873,  2.119
 55980, 11.740, 34.746, 41.399, 12.175,  2.322
 56040, 11.463, 32.975, 39.247, 12.073,  2.217
 56100, 11.781, 34.790, 41.266, 12.065,  2.442
 56160, 11.986, 36.430, 42.888, 12.337,  2.521
 56220, 12.357, 35.840, 41.693, 12.821,  2.626
 56280, 12.344, 33.629, 41.501, 12.802,  2.472
 56340, 12.379, 32.777, 40.190, 13.087,  2.289
 56400, 12.231, 31.889, 41.775, 13.307,  2.505
 56460, 12.469, 31.680, 40.352, 13.265,  2.389
 56520, 12.844, 33.601, 42.285, 13.745,  2.262
 56580, 12.863, 33.258, 42.801, 13.851,  2.488
 56640, 13.008, 33.710, 40.959, 13.968,  2.321
 56700, 13.534, 36.380, 45.630, 15.469,  2.356
 56760, -9999.000, -9999.000, -9999.000, -9999.000, -9999.000
 56820, -9999.000, -9999.000, -9999.000, -9999.000, -9999.000
 56880, -9999.000, -9999.000, -9999.000, -9999.000, -9999.000
 56940, -9999.000, -9999.000, -9999.000, -9999.000, -9999.000
 57000, -9999.000, -9999.000, -9999.000, -9999.000, -9999.000
 57060, 13.573, 37.578, 44.227, 13.770,  2.114
 57120, 13.626, 36.785, 43.445, 13.981,  2.401
 57180, 13.692, 35.876, 43.798, 13.904,  2.185
 57240, 13.927, 36.403, 44.235, 14.115,  2.146
 57300, -9999.000, -9999.000, -9999.000, -9999.000, -9999.000
 57360, 13.621, 34.878, 37.257, 13.609,  1.864
 57420, 13.884, 35.248, 42.071, 14.146,  1.934
 57480, 14.000, 36.300, 45.110, 14.056,  2.105
 57540, 13.829, 32.652, 42.353, 13.409,  1.777
 57600, 13.790, 31.766, 41.937, 13.080,  1.787
 57660, 14.231, 35.561, 40.264, 13.186,  1.593
 57720, 14.252, 36.750, 40.998, 13.185,  1.771
 57780, 14.485, 37.515, 40.868, 13.085,  1.729
 57840, 14.337, 37.711, 39.855, 12.533,  1.842
 57900, 14.426, 37.160, 39.380, 12.722,  1.798
 57960, 14.545, 40.600, 38.264, 13.247,  2.003
 58020, -9999.000, -9999.000, -9999.000, -9999.000, -9999.000
 58080, -9999.000, -9999.000, -9999.000, -9999.000, -9999.000
 58140, -9999.000, -9999.000, -9999.000, -9999.000, -9999.000
 58200, -9999.000, -9999.000, -9999.000, -9999.000, -9999.000
 58260, -9999.000, -9999.000, -9999.000, -9999.000, -9999.000
 58320, -9999.000, -9999.000, -9999.000, -9999.000, -9999.000
 58380, -9999.000, -9999.000, -9999.000, -9999.000, -9999.000
 58440, -9999.000, -9999.000, -9999.000, -9999.000, -9999.000
 58500, -9999.000, -9999.000, -9999.000, -9999.000, -9999.000
 58560, -9999.000, -9999.000, -9999.000, -9999.000, -9999.000
 58620, -9999.000, -9999.000, -9999.000, -9999.000, -9999.000
 58680, -9999.000, -9999.000, -9999.000, -9999.000, -9999.000
 58740, -9999.000, -9999.000, -9999.000, -9999.000, -9999.000
 58800, -9999.000, -9999.000, -9999.000, -9999.000, -9999.000
 58860, -9999.000, -9999.000, -9999.000, -9999.000, -9999.000
 58920, -9999.000, -9999.000, -9999.000, -9999.000, -9999.000
 58980, -9999.000, -9999.000, -9999.000, -9999.000, -9999.000
 59040, -9999.000, -9999.000, -9999.000, -9999.000, -9999.000
 59100, -9999.000, -9999.000, -9999.000, -9999.000, -9999.000
 59160, -9999.000, -9999.000, -9999.000, -9999.000, -9999.000
 59220, -9999.000, -9999.000, -9999.000, -9999.000, -9999.000
 59280, -9999.000, -9999.000, -9999.000, -9999.000, -9999.000
 59340, -9999.000, -9999.000, -9999.000, -9999.000, -9999.000
 59400, -9999.000, -9999.000, -9999.000, -9999.000, -9999.000
 59460, -9999.000, -9999.000, -9999.000, -9999.000, -9999.000
 59520, -9999.000, -9999.000, -9999.000, -9999.000, -9999.000
 59580, -9999.000, -9999.000, -9999.000, -9999.000, -9999.000
 59640, -9999.000, -9999.000, -9999.000, -9999.000, -9999.000
 59700, -9999.000, -9999.000, -9999.000, -9999.000, -9999.000
 59760, -9999.000, -9999.000, -9999.000, -9999.000, -9999.000
 59820, -9999.000, -9999.000, -9999.000, -9999.000, -9999.000
 59880, -9999.000, -9999.000, -9999.000, -9999.000, -9999.000
 59940, -9999.000, -9999.000, -9999.000, -9999.000, -9999.000
 60000, -9999.000, -9999.000, -9999.000, -9999.000, -9999.000
 60060, -9999.000, -9999.000, -9999.000, -9999.000, -9999.000
 60120, -9999.000, -9999.000, -9999.000, -9999.000, -9999.000
 60180, -9999.000, -9999.000, -9999.000, -9999.000, -9999.000
 60240, -9999.000, -9999.000, -9999.000, -9999.000, -9999.000
 60300, -9999.000, -9999.000, -9999.000, -9999.000, -9999.000
 60360, -9999.000, -9999.000, -9999.000, -9999.000, -9999.000
 60420, -9999.000, -9999.000, -9999.000, -9999.000, -9999.000
 60480, -9999.000, -9999.000, -9999.000, -9999.000, -9999.000
 60540, -9999.000, -9999.000, -9999.000, -9999.000, -9999.000
 60600, -9999.000, -9999.000, -9999.000, -9999.000, -9999.000
 60660, -9999.000, -9999.000, -9999.000, -9999.000, -9999.000
 60720, -9999.000, -9999.000, -9999.000, -9999.000, -9999.000
 60780, -9999.000, -9999.000, -9999.000, -9999.000, -9999.000
 60840, -9999.000, -9999.000, -9999.000, -9999.000, -9999.000
 60900, -9999.000, -9999.000, -9999.000, -9999.000, -9999.000
 60960, -9999.000, -9999.000, -9999.000, -9999.000, -9999.000
 61020, -9999.000, -9999.000, -9999.000, -9999.000, -9999.000
 61080, -9999.000, -9999.000, -9999.000, -9999.000, -9999.000
 61140, -9999.000, -9999.000, -9999.000, -9999.000, -9999.000
 61200, -9999.000, -9999.000, -9999.000, -9999.000, -9999.000
 61260, -9999.000, -9999.000, -9999.000, -9999.000, -9999.000
 61320, -9999.000, -9999.000, -9999.000, -9999.000, -9999.000
 61380, -9999.000, -9999.000, -9999.000, -9999.000, -9999.000
 61440, -9999.000, -9999.000, -9999.000, -9999.000, -9999.000
 61500, -9999.000, -9999.000, -9999.000, -9999.000, -9999.000
 61560, -9999.000, -9999.000, -9999.000, -9999.000, -9999.000
 61620, -9999.000, -9999.000, -9999.000, -9999.000, -9999.000
 61680, 18.963, 33.899, 45.640, 17.555,  1.811
 61740, 18.848, 34.193, 47.602, 16.894,  1.879
 61800, 19.461, 34.370, 48.577, 16.920,  1.878
 61860, -9999.000, -9999.000, -9999.000, -9999.000, -9999.000
 61920, 18.075, 30.773, 35.648, 17.091,  1.461
 61980, 18.975, 33.766, 40.542, 17.168,  1.629
 62040, 19.682, 35.593, 43.710, 17.303,  1.664
 62100, 19.305, 35.064, 43.861, 16.749,  1.899
 62160, 19.272, 34.592, 43.422, 17.452,  1.722
 62220, 19.421, 34.121, 44.120, 17.401,  1.612
 62280, 19.649, 34.336, 45.804, 17.446,  1.705
 62340, 19.988, 34.750, 44.071, 17.665,  1.779
 62400, 20.885, 37.744, 47.838, 17.066,  1.903
 62460, 20.781, 37.837, 46.469, 16.986,  1.880
 62520, 21.215, 38.672, 47.360, 16.853,  1.950
 62580, 21.376, 37.817, 47.866, 16.985,  2.035
 62640, 21.328, 36.611, 47.707, 16.826,  1.831
 62700, 21.370, 37.433, 47.166, 16.871,  1.847
 62760, 21.374, 37.224, 48.362, 17.241,  2.005
 62820, 21.656, 37.622, 48.795, 17.004,  1.706
 62880, 21.570, 37.671, 50.459, 17.184,  1.653
 62940, 21.645, 37.747, 50.001, 17.376,  1.659
 63000, 21.797, 38.104, 51.781, 17.048,  1.597
 63060, 21.685, 38.995, 51.973, 17.159,  1.654
 63120, 22.083, 38.279, 53.184, 17.055,  1.627
 63180, 22.345, 38.973, 54.086, 17.655,  1.519
 63240, 22.566, 38.860, 56.053, 17.322,  1.598
 63300, 22.433, 38.699, 53.792, 16.933,  1.624
 63360, 22.946, 39.577, 52.943, 16.992,  1.532
 63420, 23.313, 40.200, 59.027, 16.667,  1.692
 63480, 23.194, 38.762, 56.711, 16.947,  1.499
 63540, 23.685, 38.520, 56.564, 17.639,  1.498
 63600, 24.270, 37.411, 55.193, 18.132,  1.540
 63660, 24.573, 37.604, 50.902, 18.398,  1.574
 63720, 24.467, 32.525, 45.456, 18.725,  1.846
 63780, 24.731, 35.192, 47.532, 18.792,  1.277
 63840, 24.804, 35.458, 45.875, 19.118,  1.113
 63900, 25.661, 37.963, 48.461, 19.734,  1.433
 63960, 25.920, 38.560, 49.096, 19.489,  1.475
 64020, 25.777, 38.357, 47.063, 19.811,  1.503
 64080, 25.671, 38.120, 47.562, 19.384,  1.487
 64140, 25.793, 37.168, 45.612, 19.400,  1.426
 64200, 25.700, 37.310, 45.910, 20.090,  1.625
 64260, 25.317, 31.750, 44.979, 20.210,  1.476
 64320, 25.287, 31.476, 44.359, 20.348,  1.551
 64380, 25.459, 30.984, 43.868, 20.183,  1.476
 64440, 25.641, 31.039, 45.592, 20.062,  1.558
 64500, 25.661, 29.685, 44.504, 19.594,  1.395
 64560, 25.231, 28.444, 41.761, 20.150,  1.332
 64620, 26.182, 30.923, 48.565, 20.089,  1.398
 64680, 27.090, 33.912, 48.855, 20.350,  1.348
 64740, 27.235, 35.185, 51.709, 20.599,  1.479
 64800, 26.528, 32.516, 50.276, 20.320,  1.267
 64860, 27.028, 35.253, 52.194, 20.492,  1.342
 64920, 26.809, 33.883, 52.346, 19.993,  1.409
 64980, 26.413, 31.998, 52.826, 20.040,  1.317
 65040, 25.565, 28.328, 51.005, 19.966,  1.285
 65100, 25.589, 29.797, 54.100, 19.222,  1.337
 65160, 26.351, 30.015, 49.526, 20.598,  1.280
 65220, 25.953, 29.245, 53.578, 20.352,  1.377
 65280, 26.267, 29.547, 52.598, 19.961,  0.867
 65340, 26.701, 30.258, 59.152, 19.805,  1.220
 65400, 25.787, 29.282, 59.702, 19.001,  1.361
 65460, 23.857, 26.513, 58.128, 18.531,  1.180
 65520, 22.678, 23.559, 56.994, 17.880,  1.355
 65580, 21.700, 23.750, 40.957, 17.880,  0.406
 65640, 22.288, 25.121, 45.781, 17.640,  1.063
 65700, 21.917, 24.891, 48.618, 17.535,  1.092
 65760, 19.904, 22.595, 48.783, 16.350,  1.017
 65820, 17.882, 18.593, 49.416, 15.221,  0.964
 65880, 17.716, 17.874, 49.114, 14.572,  0.826
 65940, 17.805, 18.419, 51.288, 14.938,  0.820
 66000, 17.285, 17.334, 53.967, 14.188,  0.903
 66060, 17.105, 17.066, 57.604, 13.546,  0.707
 66120, 17.323, 17.509, 55.127, 14.129,  0.802
 66180, 17.487, 17.095, 52.008, 14.462,  0.564
 66240, 17.479, 16.389, 49.123, 14.306,  0.844
 66300, 17.670, 17.432, 48.076, 15.105,  0.915
 66360, 17.855, 17.012, 47.065, 14.783,  0.801
 66420, 17.707, 17.778, 49.214, 14.934,  0.908
 66480, 17.060, 16.539, 53.219, 13.778,  0.784
 66540, 17.334, 17.365, 56.423, 13.501,  0.781
 66600, 17.592, 16.989, 56.211, 14.017,  0.684
 66660, 18.005, 18.736, 57.440, 14.074,  0.802
 66720, 18.081, 17.691, 55.525, 13.911,  0.738
 66780, 18.454, 19.043, 57.801, 14.351,  0.754
 66840, 18.393, 17.582, 57.686, 14.777,  0.796
 66900, 18.085, 17.486, 55.992, 14.315,  0.771
 66960, 18.642, 19.364, 55.342, 14.471,  0.859
 67020, 18.176, 17.742, 52.137, 14.529,  0.706
 67080, 17.961, 18.082, 52.370, 14.227,  0.573
 67140, 18.702, 20.019, 54.304, 14.347,  0.854
 67200, 18.828, 21.305, 58.702, 14.592,  0.805
 67260, 18.406, 20.212, 57.256, 14.520,  0.704
 67320, 18.201, 20.071, 55.477, 14.136,  0.733
 67380, 18.812, 21.153, 54.211, 13.865,  1.197
 67440, 18.745, 19.863, 44.576, 14.265,  0.554
 67500, 18.645, 19.723, 45.426, 14.743,  0.589
 67560, 18.622, 20.576, 46.970, 14.598,  0.661
 67620, 18.022, 20.267, 47.148, 13.945,  0.740
 67680, 16.562, 18.742, 48.512, 14.039,  0.746
 67740, 15.385, 17.352, 55.490, 12.441,  0.600
 67800, 14.711, 16.775, 53.084, 12.382,  0.616
 67860, 13.340, 13.740, 46.581, 11.702,  0.491
 67920, 13.009, 13.348, 41.712, 11.291,  0.508
 67980, 12.761, 12.580, 40.608, 11.113,  0.468
 68040, 12.813, 12.246, 37.704, 10.963,  0.396
 68100, 13.381, 13.631, 39.558, 11.544,  0.409
 68160, 13.564, 14.370, 41.622, 11.379,  0.438
 68220, 13.744, 14.223, 40.973, 11.459,  0.394
 68280, 13.637, 13.749, 36.873, 11.795,  0.536
 68340, 14.229, 15.268, 37.925, 11.888,  0.559
 68400, 13.886, 15.984, 34.635, 11.945,  0.525
 68460, 13.766, 15.990, 35.421, 11.563,  0.556
 68520, 12.636, 15.280, 39.328, 10.652,  0.542
 68580, 11.764, 13.048, 42.225,  9.867,  0.502
 68640, 11.634, 13.700, 52.015,  9.717,  0.591
 68700, 11.085, 14.315, 68.107,  9.224,  0.473
 68760, 10.809, 14.805, 77.147,  8.781,  0.689
 68820, 11.062, 15.217, 84.698,  8.453,  0.502
 68880, 10.901, 13.750, 89.349,  8.739,  0.532
 68940, 10.783, 14.478, 103.809,  8.662,  0.720
 69000, 10.578, 14.791, 112.710,  8.308,  0.557
 69060, 10.082, 13.559, 123.355,  7.616,  0.609
 69120,  9.829, 13.713, 130.267,  7.630,  0.451
 69180, 10.104, 14.664, 139.901,  7.852,  0.613
 69240, -9999.000, -9999.000, -9999.000, -9999.000, -9999.000
 69300,  9.623, 13.845, 119.446,  7.758,  0.181
 69360,  9.157, 13.667, 135.969,  7.092,  0.498
 69420,  9.064, 13.412, 147.767,  7.234,  0.400
 69480,  9.008, 12.867, 151.862,  6.844,  0.524
 69540,  9.303, 12.768, 149.284,  6.901,  0.437
 69600,  9.675, 13.188, 141.372,  6.699,  0.528
 69660,  9.608, 13.599, 137.717,  6.751,  0.417
 69720,  9.688, 13.680, 144.919,  6.881,  0.435
 69780, 10.389, 14.563, 138.736,  6.903,  0.579
 69840, 10.743, 15.257, 138.976,  7.280,  0.411
 69900, 10.582, 15.081, 148.186,  7.319,  0.463
 69960, 10.592, 15.035, 157.666,  7.053,  0.560
 70020, 10.749, 15.174, 149.754,  7.255,  0.497
 70080, 11.044, 16.265, 141.794,  7.382,  0.546
 70140, 11.310, 17.015, 140.219,  7.902,  0.562
 70200, 11.030, 16.023, 146.584,  7.678,  0.490
 70260, 11.320, 16.226, 151.810,  7.473,  0.500
 70320, 11.600, 15.571, 150.592,  7.474,  0.537
 70380, 11.726, 16.571, 153.985,  7.920,  0.421
 70440, 11.446, 16.625, 155.629,  7.351,  0.382
 70500, 11.114, 16.402, 161.653,  7.419,  0.523
 70560, 11.127, 17.115, 157.731,  7.383,  0.621
 70620, 11.384, 17.800, 165.537,  7.486,  0.464
 70680, 10.953, 18.537, 174.149,  7.281,  0.511
 70740, 11.170, 17.229, 177.864,  7.277,  0.472
 70800, 11.176, 16.971, 169.788,  7.007,  0.569
 70860, 12.065, 18.509, 171.307,  7.774,  0.533
 70920, 12.928, 18.877, 160.688,  8.192,  0.517
 70980, 13.890, 19.642, 150.869,  8.104,  0.560
 71040, 14.370, 19.870, 148.056,  8.393,  0.596
 71100, -9999.000, -9999.000, -9999.000, -9999.000, -9999.000
 71160, 15.637, 20.340, 117.378,  9.786,  0.525
 71220, 16.568, 21.529, 116.545,  9.931,  0.399
 71280, 16.267, 21.180, 120.010,  9.983,  0.517
 71340, 16.038, 20.739, 134.640,  9.171,  0.461
 71400, 15.374, 20.793, 147.043,  8.870,  0.535
 71460, 14.803, 19.383, 163.863,  8.161,  0.455
 71520, 15.356, 19.708, 163.240,  8.374,  0.589
 71580, 16.025, 20.625, 165.274,  7.921,  0.469
 71640, 15.701, 19.646, 167.507,  8.210,  0.419
 71700, 15.038, 19.167, 167.612,  8.034,  0.516
 71760, 13.757, 18.377, 162.299,  7.625,  0.400
 71820, 13.059, 17.766, 173.747,  7.257,  0.525
 71880, 14.057, 18.042, 161.541,  7.317,  0.473
 71940, 13.541, 17.699, 152.798,  7.419,  0.420
 72000, 13.963, 17.541, 152.622,  7.516,  0.615
 72060, 14.893, 18.033, 138.239,  7.955,  0.553
 72120, 15.255, 18.398, 132.986,  8.080,  0.549
 72180, 15.924, 19.754, 129.152,  8.199,  0.547
 72240, 15.563, 19.313, 123.259,  7.944,  0.511
 72300, 15.132, 18.497, 120.996,  7.834,  0.514
 72360, 14.834, 18.094, 120.785,  7.652,  0.572
 72420, 15.601, 18.583, 115.981,  7.745,  0.530
 72480, 15.840, 19.345, 112.389,  7.980,  0.614
 72540, 16.821, 19.023, 105.596,  8.362,  0.550
 72600, 17.149, 19.248, 104.932,  8.701,  0.533
 72660, 16.683, 17.898, 105.344,  8.293,  0.603
 72720, 16.636, 19.560, 106.974,  8.082,  0.668
 72780, 15.848, 19.295, 111.683,  7.839,  0.458
 72840, 16.941, 18.997, 110.372,  8.147,  0.441
 72900, 17.673, 19.398, 109.581,  8.208,  0.462
 72960, -9999.000, -9999.000, -9999.000, -9999.000, -9999.000
 73020, 17.422, 22.231, 99.477,  8.467,  0.317
 73080, 18.454, 22.557, 109.932,  8.382,  0.488
 73140, 17.567, 22.990, 116.802,  8.343,  0.425
 73200, 17.310, 22.615, 117.013,  8.249,  0.361
 73260, 17.014, 22.363, 116.784,  7.658,  0.462
 73320, 16.696, 21.082, 117.026,  7.922,  0.381
 73380, 16.065, 20.801, 115.783,  7.928,  0.458
 73440, 16.071, 21.281, 121.215,  7.313,  0.421
 73500, 15.635, 21.392, 123.153,  7.206,  0.319
 73560, 15.588, 21.421, 127.919,  7.494,  0.558
 73620, 15.435, 21.481, 135.917,  7.208,  0.427
 73680, 15.004, 20.090, 139.711,  6.853,  0.460
 73740, 15.070, 20.917, 137.857,  6.675,  0.540
 73800, 14.984, 20.722, 138.727,  6.992,  0.478
 73860, 14.799, 20.320, 133.408,  7.405,  0.495
 73920, 14.766, 20.474, 136.656,  7.530,  0.373
 73980, 14.273, 20.421, 142.692,  7.236,  0.420
 74040, 13.997, 20.523, 138.637,  7.001,  0.420
 74100, 14.037, 19.694, 133.495,  7.233,  0.335
 74160, 13.798, 19.596, 126.103,  7.088,  0.514
 74220, 14.050, 20.139, 123.813,  6.856,  0.550
 74280, 13.780, 20.866, 124.821,  6.847,  0.492
 74340, 13.201, 20.360, 125.946,  6.927,  0.534
 74400, 12.795, 18.286, 131.873,  6.733,  0.463
 74460, 12.477, 18.268, 133.910,  6.174,  0.505
 74520, 12.189, 17.016, 132.966,  6.147,  0.380
 74580, 11.860, 18.147, 135.682,  5.809,  0.424
 74640, 11.722, 17.644, 133.604,  6.364,  0.398
 74700, 11.446, 16.414, 125.714,  5.966,  0.497
 74760, 11.303, 15.974, 121.401,  5.662,  0.534
 74820, 11.335, 15.847, 113.377,  6.659,  0.510
 74880, 11.228, 17.147, 120.238,  6.400,  0.471
 74940, 11.249, 17.479, 130.449,  6.264,  0.255
 75000, 11.208, 17.363, 130.457,  5.945,  0.419
 75060, 11.465, 17.437, 131.358,  6.227,  0.346
 75120, 11.715, 17.263, 136.693,  5.911,  0.430
 75180, 11.507, 16.137, 135.971,  6.069,  0.415
 75240, 11.538, 16.906, 133.037,  5.883,  0.481
 75300, 12.393, 19.337, 140.329,  6.598,  0.404
 75360, 12.283, 20.354, 143.906,  6.227,  0.411
 75420, 12.536, 19.842, 146.188,  6.107,  0.392
 75480, 12.621, 19.202, 150.382,  6.178,  0.429
 75540, 12.638, 19.121, 146.123,  6.315,  0.454
 75600, 12.647, 19.662, 148.612,  6.523,  0.296
 75660, 12.625, 19.709, 144.668,  6.472,  0.443
 75720, 12.050, 19.477, 146.899,  6.150,  0.501
 75780, 11.800, 18.545, 152.104,  5.669,  0.366
 75840, 11.581, 17.667, 152.704,  5.741,  0.275
 75900, 11.472, 18.239, 153.980,  5.911,  0.365
 75960, 11.452, 18.059, 152.788,  5.736,  0.263
 76020, 11.432, 18.280, 155.392,  5.563,  0.387
 76080, 11.387, 18.374, 153.409,  5.771,  0.453
 76140, 11.464, 17.879, 152.454,  5.731,  0.417
 76200, 11.732, 18.552, 149.189,  5.684,  0.622
 76260, 10.938, 18.162, 162.513,  5.570,  0.552
 76320, 11.510, 18.783, 158.684,  5.734,  0.550
 76380, 11.576, 21.251, 157.010,  5.584,  0.502
 76440, 10.989, 20.424, 158.466,  5.715,  0.518
 76500, 10.707, 20.703, 161.960,  5.126,  0.627
 76560, 10.467, 21.663, 164.966,  5.465,  0.464
 76620, -9999.000, -9999.000, -9999.000, -9999.000, -9999.000
 76680, 10.345, 18.084, 124.448,  6.042,  0.478
 76740, 11.048, 19.658, 138.343,  5.931,  0.516
 76800, 11.698, 17.886, 145.004,  5.815,  0.488
 76860, 11.891, 17.932, 152.816,  5.909,  0.444
 76920, 11.763, 17.643, 152.723,  5.771,  0.446
 76980, 11.942, 17.522, 159.300,  5.690,  0.453
 77040, 11.753, 17.358, 157.555,  5.767,  0.629
 77100, 11.883, 17.310, 161.142,  6.139,  0.452
 77160, 11.502, 17.490, 159.579,  5.854,  0.537
 77220, 11.291, 17.458, 156.199,  5.835,  0.681
 77280, 11.371, 17.429, 160.414,  5.757,  0.596
 77340, 11.241, 17.291, 166.725,  5.426,  0.600
 77400, 11.213, 17.951, 159.197,  5.417,  0.719
 77460, 11.054, 17.950, 161.497,  5.618,  0.576
 77520, 11.017, 18.395, 157.070,  5.549,  0.552
 77580, 11.096, 18.344, 156.794,  5.823,  0.653
 77640, 10.877, 17.642, 151.303,  5.576,  0.707
 77700, 10.777, 18.174, 153.773,  5.488,  0.612
 77760, 10.829, 17.827, 158.809,  5.609,  0.665
 77820, 10.953, 17.250, 159.882,  5.609,  0.502
 77880, 10.637, 16.740, 153.847,  5.376,  0.582
 77940, 10.727, 16.879, 154.399,  5.676,  0.609
 78000, 10.853, 16.738, 162.103,  5.511,  0.606
 78060, 10.874, 16.996, 162.370,  5.461,  0.647
 78120, 10.851, 17.403, 166.395,  5.430,  0.568
 78180, 11.077, 16.867, 164.579,  5.477,  0.620
 78240, 11.367, 18.516, 170.657,  5.977,  0.608
 78300, 11.290, 19.123, 170.477,  5.831,  0.675
 78360, 11.473, 19.179, 182.959,  6.057,  0.712
 78420, 11.168, 18.133, 182.050,  5.455,  0.546
 78480, -9999.000, -9999.000, -9999.000, -9999.000, -9999.000
 78540, 11.042, 17.244, 163.829,  6.054,  0.688
 78600, 10.814, 17.412, 174.088,  5.758,  0.649
 78660, 10.865, 17.139, 175.018,  5.582,  0.616
 78720, 11.151, 18.042, 184.621,  5.641,  0.569
 78780, 11.189, 18.272, 178.675,  5.604,  0.577
 78840, 11.809, 19.588, 190.892,  5.952,  0.612
 78900, 11.598, 18.649, 175.010,  5.399,  0.515
 78960, 11.659, 17.993, 174.984,  6.042,  0.692
 79020, 10.980, 17.182, 167.694,  5.309,  0.514
 79080,  9.835, 17.988, 174.782,  4.978,  0.621
 79140,  9.337, 16.265, 171.263,  4.838,  0.459
 79200,  9.147, 15.692, 173.549,  5.204,  0.423
 79260,  8.985, 15.136, 167.313,  4.424,  0.392
 79320,  9.049, 15.659, 181.160,  4.716,  0.426
 79380,  9.150, 16.144, 175.295,  4.882,  0.297
 79440,  9.480, 17.208, 182.588,  4.588,  0.369
 79500,  9.743, 16.938, 184.217,  4.491,  0.366
 79560, 10.387, 15.737, 187.438,  4.688,  0.401
 79620, 10.202, 16.224, 189.133,  4.838,  0.371
 79680, 10.481, 16.793, 186.013,  4.777,  0.378
 79740, 10.335, 17.758, 196.625,  4.520,  0.520
 79800, 10.577, 16.321, 196.284,  4.918,  0.463
 79860, 10.442, 16.438, 191.283,  4.871,  0.452
 79920, 10.183, 16.529, 188.912,  4.956,  0.317
 79980,  9.939, 15.859, 185.561,  4.758,  0.322
 80040,  9.982, 15.096, 177.185,  4.669,  0.427
 80100, 10.047, 16.166, 183.607,  4.714,  0.336
 80160,  9.887, 16.169, 182.710,  4.634,  0.328
 80220,  9.666, 15.738, 179.408,  4.816,  0.172
 80280,  9.379, 15.640, 175.517,  4.820,  0.417
 80340, -9999.000, -9999.000, -9999.000, -9999.000, -9999.000
 80400,  8.912, 14.086, 145.838,  5.108,  0.263
 80460,  9.299, 14.504, 158.029,  4.512,  0.209
 80520,  9.476, 15.499, 166.226,  4.428,  0.204
 80580,  9.629, 14.853, 166.824,  4.535,  0.263
 80640,  9.808, 15.416, 171.164,  4.422,  0.382
 80700,  9.952, 14.611, 175.314,  4.842,  0.397
 80760, 10.080, 14.186, 169.377,  4.920,  0.411
 80820, 10.322, 15.121, 175.125,  4.623,  0.359
 80880, 10.504, 15.057, 171.831,  4.722,  0.354
 80940, 11.059, 15.284, 187.450,  4.803,  0.389
 81000, 10.982, 14.651, 185.470,  5.094,  0.467
 81060, 10.749, 14.782, 184.960,  5.081,  0.491
 81120, 10.668, 15.361, 181.400,  4.700,  0.367
 81180, 10.506, 15.920, 182.112,  4.694,  0.400
 81240, 10.635, 15.218, 181.858,  4.461,  0.470
 81300, 10.547, 16.417, 185.574,  4.797,  0.392
 81360, 10.617, 14.746, 188.796,  4.425,  0.585
 81420, 10.929, 15.784, 191.219,  4.752,  0.382
 81480, 10.785, 15.738, 188.476,  4.440,  0.505
 81540, 10.689, 15.539, 184.345,  4.790,  0.521
 81600, 10.940, 15.036, 179.048,  4.684,  0.443
 81660, 11.157, 15.808, 183.926,  4.679,  0.431
 81720, 11.063, 15.735, 179.196,  4.882,  0.527
 81780, 11.134, 16.125, 180.652,  4.733,  0.461
 81840, 11.165, 16.826, 182.605,  4.605,  0.618
 81900, 10.918, 16.137, 181.928,  4.441,  0.459
 81960, 10.417, 15.363, 174.724,  4.695,  0.487
 82020, 10.362, 14.903, 175.406,  4.419,  0.462
 82080, 10.611, 14.585, 176.251,  4.653,  0.463
 82140, 10.369, 14.704, 175.840,  4.822,  0.431
 82200, 10.284, 13.873, 147.939,  5.419,  0.509
 82260, 10.034, 15.498, 161.528,  4.811,  0.530
 82320,  9.550, 15.428, 164.188,  4.383,  0.425
 82380,  9.523, 14.944, 169.750,  4.434,  0.402
 82440, 10.181, 15.513, 179.167,  4.453,  0.478
 82500, 10.150, 14.100, 178.782,  4.359,  0.096
 82560, 10.385, 15.473, 194.287,  4.834,  0.511
 82620,  9.917, 16.138, 180.656,  4.587,  0.552
 82680,  9.712, 14.877, 168.107,  4.521,  0.457
 82740,  9.641, 16.279, 174.007,  4.286,  0.448
 82800,  9.748, 15.572, 171.427,  4.616,  0.452
 82860,  9.778, 15.508, 177.375,  4.194,  0.355
 82920,  9.915, 15.964, 180.844,  4.622,  0.513
 82980,  9.812, 15.573, 180.957,  4.211,  0.486
 83040,  9.703, 15.420, 176.648,  4.643,  0.389
 83100,  9.737, 16.552, 177.394,  4.389,  0.399
 83160,  9.718, 15.333, 173.954,  4.605,  0.339
 83220,  9.962, 16.159, 179.716,  4.628,  0.327
 83280,  9.990, 15.552, 175.968,  4.692,  0.435
 83340, 10.091, 16.379, 182.015,  4.829,  0.344
 83400, 10.075, 15.492, 180.315,  4.703,  0.379
 83460, 10.020, 15.834, 178.563,  4.650,  0.341
 83520,  9.576, 14.538, 162.221,  4.264,  0.225
 83580,  9.835, 15.528, 166.655,  4.501,  0.279
 83640, 10.193, 16.289, 188.239,  5.372,  0.232
 83700, 10.187, 16.422, 179.907,  5.076,  0.270
 83760, 10.217, 17.147, 186.600,  5.230,  0.388
 83820,  9.964, 16.374, 172.763,  5.391,  0.445
 83880, 10.155, 16.495, 174.523,  4.937,  0.369
 83940, 10.116, 15.917, 171.068,  5.249,  0.296
 84000, 10.179, 16.512, 178.422,  5.296,  0.654
 84060,  9.057, 15.805, 121.866,  5.423,  0.319
 84120,  9.524, 15.337, 132.043,  5.304,  0.278
 84180,  9.830, 16.078, 140.950,  5.085,  0.360
 84240, 10.055, 16.413, 156.639,  5.415,  0.394
 84300, 10.393, 16.135, 160.959,  5.537,  0.318
 84360, 10.586, 16.848, 172.530,  5.399,  0.344
 84420, 10.742, 16.969, 175.827,  5.405,  0.247
 84480, 10.752, 16.441, 184.286,  5.323,  0.386
 84540, 10.225, 15.710, 173.618,  4.914,  0.285
 84600,  9.971, 16.156, 172.261,  4.841,  0.363
 84660, 10.349, 15.568, 168.455,  4.903,  0.289
 84720, 10.374, 15.413, 178.091,  5.105,  0.179
 84780, 10.328, 15.027, 176.140,  5.019,  0.293
 84840, 10.199, 15.526, 175.724,  5.143,  0.269
 84900,  9.272, 14.426, 159.600,  4.680,  0.300
 84960,  8.886, 14.742, 157.863,  4.765,  0.386
 85020,  8.709, 14.098, 146.869,  4.724,  0.367
 85080,  8.705, 13.659, 148.030,  4.553,  0.177
 85140,  8.976, 13.845, 150.127,  4.410,  0.288
 85200,  8.514, 13.809, 146.266,  4.568,  0.258
 85260,  8.805, 13.741, 149.036,  4.515,  0.126
 85320,  9.016, 14.125, 154.229,  4.571,  0.199
 85380,  8.952, 14.516, 158.479,  4.563, -0.024
 85440,  8.961, 14.440, 152.230,  4.602,  0.346
 85500,  8.897, 13.990, 151.781,  4.520,  0.250
 85560,  8.916, 14.707, 152.437,  4.442,  0.297
 85620,  9.039, 14.689, 156.470,  4.757,  0.332
 85680,  9.085, 14.776, 152.540,  4.522,  0.260
 85740,  9.215, 14.796, 156.022,  4.622,  0.370
 85800,  9.461, 14.558, 158.226,  4.612,  0.225
 85860,  9.800, 15.196, 168.288,  4.147,  0.359
 85920,  9.806, 14.579, 159.369,  4.992,  0.123
 85980,  9.731, 14.699, 165.622,  4.527,  0.333
 86040,  9.771, 14.578, 170.992,  4.913,  0.293
 86100,  9.535, 15.172, 165.271,  4.707,  0.240
 86160,  9.495, 14.861, 163.311,  4.764,  0.371
 86220,  9.410, 15.256, 162.365,  4.812,  0.313
 86280,  9.391, 14.493, 160.320,  4.528,  0.296
 86340,  9.736, 15.464, 167.297,  4.785,  0.204
