37, 1001
Michael A Robinson, Chris Jernigan, Subi Thakali
NOAA ESRL Chemical Sciences Laboratory and CIRES, U. of Colorado
NOAA Iodide CIMS Instrument
USOS
1, 1
2024, 08, 10, 2024, 08, 11
1
starttime_UTC, seconds_past_midnight, seconds_of_day_since_00:00:00_UTC
5
1, 1, 1, 1, 1
-9999, -9999, -9999, -9999, -9999
C4H7NO5_NOAACIMS, pptv, Gas_C4H7NO5_InSitu_S_AVMR, 
ISOPN_NOAACIMS, pptv, Gas_ISOPN_InSitu_S_AVMR, 
C5H10O3_NOAACIMS, pptv, Gas_C5H10O3_InSitu_S_AVMR, 
C5H9NO5_NOAACIMS, pptv, Gas_C5H9NO5_InSitu_S_AVMR, 
C10H17NO4_NOAACIMS, pptv, Gas_C10H17NO4_InSitu_S_AVMR, 
0
18
PI_CONTACT_INFO: 325 Broadway, R/CSD 7, Boulder, Colorado 80305; michael.a.robinson@noaa.gov; chris.jernigan@noaa.gov;
PLATFORM: NOAA CSL Mobile Lab
LOCATION: SLC, Utah
ASSOCIATED_DATA: 1Hz data also available on request.
INSTRUMENT_INFO: NOAA I- ToF CIMS
DATA_INFO: All data in parts per trillion by volume (pptv). 1 Hz data is available upon request.
UNCERTAINTY: TBD
ULOD_FLAG: -7777
ULOD_VALUE: N/A
LLOD_FLAG: -8888
LLOD_VALUE: N/A
DM_CONTACT_INFO: Nathan Howard; nathan.h.howard@noaa.gov
PROJECT_INFO: USOS, summer 2024. https://csl.noaa.gov/groups/csl7/measurements/2024usos/
STIPULATIONS_ON_USE: Users are strongly encouraged to contact the PI for proper data usage.
OTHER_COMMENTS: 
REVISION: RA
RA: Preliminary Data; For in-field use only
starttime_UTC, C4H7NO5_NOAACIMS, ISOPN_NOAACIMS, C5H10O3_NOAACIMS, C5H9NO5_NOAACIMS, C10H17NO4_NOAACIMS
     0,  2.826,  5.465, 21.108,  2.535,  0.148
    60,  3.035,  5.653, 22.283,  2.647,  0.150
   120,  3.282,  6.518, 26.286,  3.386,  0.185
   180,  3.831,  7.388, 32.652,  3.983,  0.186
   240,  4.445,  7.322, 39.256,  5.192,  0.201
   300,  4.729,  6.443, 43.965,  5.912,  0.277
   360,  5.107,  6.906, 59.479,  6.876,  0.309
   420,  4.249,  7.070, 60.533,  6.326,  0.453
   480,  3.838,  5.736, 60.041,  5.632,  0.183
   540,  3.139,  5.536, 51.881,  5.175,  0.537
   600,  2.932,  5.710, 43.012,  4.747,  0.572
   660,  2.740,  5.121, 28.408,  4.131,  0.464
   720,  2.718,  4.835, 22.836,  4.213,  0.504
   780,  2.860,  5.045, 19.572,  4.186,  0.497
   840,  3.084,  4.959, 16.770,  4.237,  0.288
   900,  3.372,  4.425, 13.353,  4.256,  0.210
   960,  3.945,  5.478, 15.142,  4.908,  0.371
  1020,  4.123,  5.742, 15.507,  5.464,  0.414
  1080,  4.908,  6.443, 18.996,  6.615,  0.505
  1140,  5.463,  6.412, 23.077,  7.402,  0.562
  1200,  5.833,  6.418, 23.928,  7.713,  0.573
  1260,  5.823,  5.961, 21.732,  8.107,  0.540
  1320,  5.887,  5.695, 23.240,  8.078,  0.437
  1380,  5.997,  6.304, 26.313,  8.469,  0.608
  1440,  5.894,  5.776, 26.753,  8.446,  0.516
  1500,  5.980,  5.570, 28.561,  8.388,  0.515
  1560,  5.758,  5.528, 29.267,  8.191,  0.519
  1620,  6.314,  5.620, 30.392,  8.842,  0.550
  1680,  6.786,  5.951, 33.742,  9.950,  0.529
  1740,  7.943,  6.454, 39.708, 10.187,  0.632
  1800,  7.659,  6.430, 41.673, 10.102,  0.589
  1860,  7.232,  6.654, 44.625,  9.852,  0.670
  1920,  7.001,  6.606, 46.286,  9.858,  0.619
  1980,  6.577,  6.727, 47.998,  9.536,  0.582
  2040,  6.408,  6.427, 50.782,  9.069,  0.481
  2100,  6.138,  5.835, 51.868,  8.866,  0.565
  2160,  5.917,  5.713, 52.310,  8.772,  0.570
  2220,  5.677,  5.417, 52.518,  8.300,  0.398
  2280,  5.211,  4.950, 51.817,  7.936,  0.432
  2340, -9999.000, -9999.000, -9999.000, -9999.000, -9999.000
  2400,  5.245,  5.247, 50.972,  7.640,  0.397
  2460,  5.516,  5.755, 55.335,  8.024,  0.454
  2520,  4.969,  5.586, 54.226,  7.373,  0.473
  2580,  4.728,  5.503, 52.646,  7.224,  0.421
  2640,  4.670,  5.594, 51.767,  7.090,  0.466
  2700,  4.299,  5.128, 50.669,  6.599,  0.502
  2760,  3.889,  4.618, 46.115,  6.136,  0.339
  2820,  3.567,  4.506, 42.371,  5.434,  0.401
  2880,  3.310,  3.868, 38.302,  5.090,  0.306
  2940,  3.246,  3.905, 37.280,  5.199,  0.277
  3000,  3.221,  3.920, 35.227,  4.904,  0.308
  3060,  3.402,  4.292, 38.902,  5.204,  0.348
  3120,  3.791,  5.709, 43.088,  5.750,  0.399
  3180,  3.813,  6.148, 44.931,  5.867,  0.444
  3240,  3.742,  5.774, 45.540,  5.983,  0.245
  3300,  3.805,  6.043, 46.152,  5.975,  0.388
  3360,  3.719,  6.011, 46.846,  5.983,  0.427
  3420,  3.703,  6.364, 45.392,  5.683,  0.412
  3480,  3.689,  6.222, 45.102,  5.729,  0.479
  3540,  3.446,  6.091, 44.242,  5.361,  0.380
  3600,  3.300,  5.673, 41.329,  5.243,  0.382
  3660,  3.173,  4.909, 38.824,  4.940,  0.342
  3720,  3.103,  4.815, 35.763,  4.814,  0.338
  3780,  2.878,  4.484, 34.416,  4.582,  0.214
  3840,  2.853,  4.836, 31.731,  4.558,  0.122
  3900,  2.916,  4.959, 31.642,  4.511,  0.184
  3960,  3.031,  5.542, 34.051,  4.684,  0.265
  4020,  2.973,  5.364, 31.148,  4.426,  0.251
  4080,  3.041,  5.416, 33.078,  4.748,  0.199
  4140,  2.952,  5.333, 33.402,  4.421,  0.120
  4200, -9999.000, -9999.000, -9999.000, -9999.000, -9999.000
  4260,  2.784,  5.685, 28.567,  4.217,  0.155
  4320,  2.935,  6.315, 30.855,  4.420,  0.205
  4380,  3.010,  6.182, 31.317,  4.437,  0.232
  4440,  3.005,  6.892, 31.741,  4.463,  0.256
  4500,  3.099,  7.265, 35.909,  4.499,  0.238
  4560,  2.926,  7.329, 34.191,  4.393,  0.241
  4620,  2.931,  7.102, 33.044,  4.491,  0.232
  4680,  2.914,  7.917, 34.720,  4.431,  0.221
  4740,  2.928,  8.003, 35.596,  4.585,  0.280
  4800,  2.939,  7.690, 36.287,  4.583,  0.202
  4860,  2.856,  7.937, 36.796,  4.368,  0.062
  4920,  2.906,  8.590, 37.776,  4.538,  0.147
  4980,  2.840,  8.569, 37.515,  4.339,  0.276
  5040,  2.855,  9.715, 39.083,  4.370,  0.354
  5100,  2.803,  8.627, 36.814,  4.209,  0.280
  5160,  2.659,  8.145, 34.981,  4.093,  0.302
  5220,  2.739,  8.961, 36.946,  4.053,  0.320
  5280,  2.787,  9.146, 37.592,  4.089,  0.316
  5340,  2.739,  8.615, 38.021,  4.278,  0.308
  5400,  2.611,  7.766, 36.350,  3.992,  0.281
  5460,  2.479,  7.814, 35.504,  3.922,  0.309
  5520,  2.454,  8.199, 35.441,  3.869,  0.329
  5580,  2.277,  6.879, 29.742,  3.505,  0.316
  5640,  2.213,  6.524, 29.283,  3.317,  0.281
  5700,  2.337,  7.455, 31.415,  3.696,  0.245
  5760,  2.229,  6.983, 30.694,  3.538,  0.272
  5820,  2.228,  7.020, 29.066,  3.294,  0.242
  5880,  2.165,  7.220, 28.007,  3.202,  0.276
  5940,  2.120,  7.179, 28.859,  3.206,  0.283
  6000,  2.007,  6.921, 28.707,  2.981,  0.314
  6060, -9999.000, -9999.000, -9999.000, -9999.000, -9999.000
  6120,  1.898,  6.235, 23.165,  2.924,  0.276
  6180,  1.903,  6.651, 22.225,  2.916,  0.227
  6240,  2.002,  7.606, 24.223,  3.025,  0.263
  6300,  2.008,  7.110, 26.965,  3.134,  0.323
  6360,  1.981,  5.792, 24.098,  2.951,  0.252
  6420,  1.987,  6.577, 24.551,  2.853,  0.215
  6480,  2.043,  6.416, 24.889,  3.143,  0.204
  6540,  2.088,  6.762, 25.269,  3.065,  0.200
  6600,  2.104,  6.620, 25.617,  3.146,  0.169
  6660,  2.172,  7.247, 28.468,  3.406,  0.255
  6720,  2.222,  7.320, 28.751,  3.327,  0.284
  6780,  2.209,  7.066, 29.176,  3.485,  0.304
  6840,  2.242,  7.072, 30.971,  3.528,  0.260
  6900,  2.327,  7.600, 30.830,  3.739,  0.324
  6960,  2.271,  6.313, 30.585,  3.694,  0.338
  7020,  2.377,  6.603, 32.279,  3.668,  0.368
  7080,  2.336,  6.515, 32.234,  3.654,  0.301
  7140,  2.381,  5.967, 31.637,  3.873,  0.319
  7200,  2.344,  5.364, 32.545,  3.593,  0.293
  7260,  2.364,  5.387, 32.166,  3.920,  0.262
  7320,  2.330,  4.883, 32.048,  3.583,  0.295
  7380,  2.300,  5.183, 31.243,  3.860,  0.237
  7440,  2.250,  5.003, 31.449,  3.706,  0.338
  7500,  2.249,  4.883, 29.221,  3.516,  0.293
  7560,  2.070,  4.494, 26.923,  3.445,  0.234
  7620,  1.984,  3.823, 26.081,  3.341,  0.153
  7680,  1.949,  3.654, 24.141,  3.218,  0.190
  7740,  1.957,  3.535, 22.669,  3.210,  0.219
  7800,  1.864,  3.521, 22.053,  3.072,  0.177
  7860,  2.001,  3.138, 21.193,  2.959,  0.177
  7920,  1.811,  3.075, 19.832,  2.585,  0.086
  7980,  1.955,  3.368, 21.824,  3.085,  0.239
  8040,  1.898,  3.033, 20.625,  3.071,  0.196
  8100,  1.819,  3.062, 19.539,  2.949,  0.187
  8160,  1.852,  3.150, 19.718,  2.984,  0.205
  8220,  1.841,  2.928, 18.675,  2.952,  0.216
  8280,  1.830,  2.834, 18.584,  2.783,  0.140
  8340,  1.840,  2.667, 19.163,  2.849,  0.126
  8400,  1.830,  3.132, 18.924,  2.766,  0.162
  8460,  1.779,  2.862, 17.949,  2.826,  0.151
  8520,  1.817,  2.894, 18.542,  2.866,  0.128
  8580,  1.800,  2.644, 18.689,  2.707,  0.136
  8640,  1.857,  2.873, 18.905,  2.971,  0.157
  8700,  1.838,  2.965, 19.190,  2.950,  0.128
  8760,  1.806,  2.892, 18.008,  2.855,  0.137
  8820,  1.831,  2.951, 18.828,  3.017,  0.164
  8880,  1.823,  3.020, 18.525,  2.972,  0.183
  8940,  1.778,  2.454, 18.007,  2.784,  0.101
  9000,  1.799,  3.222, 17.854,  2.983,  0.144
  9060,  1.748,  3.208, 17.461,  2.925,  0.163
  9120,  1.790,  2.700, 18.037,  2.957,  0.111
  9180,  1.806,  2.682, 17.634,  3.154,  0.107
  9240,  1.864,  3.174, 18.950,  3.114,  0.208
  9300,  1.834,  2.940, 18.273,  3.118,  0.186
  9360,  1.770,  2.431, 18.379,  3.041,  0.003
  9420,  1.830,  2.543, 18.082,  2.783,  0.101
  9480,  1.813,  2.797, 18.711,  3.086,  0.172
  9540,  1.816,  2.894, 18.833,  3.110,  0.182
  9600,  1.812,  2.637, 19.020,  3.128,  0.227
  9660,  1.790,  2.823, 18.043,  3.008,  0.240
  9720, -9999.000, -9999.000, -9999.000, -9999.000, -9999.000
  9780,  1.718,  2.441, 14.999,  2.982,  0.212
  9840,  1.670,  2.642, 17.208,  2.922,  0.205
  9900,  1.704,  2.440, 16.883,  3.016,  0.269
  9960,  1.701,  2.461, 17.276,  2.862,  0.223
 10020,  1.638,  2.471, 16.476,  2.928,  0.232
 10080,  1.594,  2.416, 17.122,  2.821,  0.245
 10140,  1.620,  2.237, 16.232,  2.615,  0.216
 10200,  1.638,  2.373, 16.824,  2.673,  0.266
 10260,  1.620,  2.280, 16.109,  2.673,  0.229
 10320,  1.661,  2.365, 15.302,  2.612,  0.243
 10380,  1.609,  2.390, 17.332,  2.629,  0.215
 10440,  1.601,  2.142, 16.271,  2.472,  0.267
 10500,  1.570,  2.329, 17.184,  2.553,  0.285
 10560,  1.620,  2.308, 16.541,  2.512,  0.249
 10620,  1.606,  2.360, 15.972,  2.506,  0.261
 10680,  1.603,  2.443, 16.555,  2.532,  0.295
 10740,  1.607,  2.204, 15.975,  2.426,  0.329
 10800,  1.585,  2.266, 16.554,  2.548,  0.301
 10860,  1.608,  2.464, 16.027,  2.429,  0.249
 10920,  1.541,  2.211, 15.896,  2.550,  0.247
 10980,  1.605,  2.423, 16.587,  2.459,  0.278
 11040,  1.600,  2.449, 15.756,  2.405,  0.328
 11100,  1.614,  2.505, 16.984,  2.474,  0.316
 11160,  1.611,  2.462, 16.947,  2.603,  0.273
 11220,  1.607,  2.365, 16.771,  2.414,  0.295
 11280,  1.609,  2.459, 16.336,  2.579,  0.257
 11340,  1.630,  2.547, 16.616,  2.461,  0.283
 11400,  1.666,  2.462, 16.476,  2.486,  0.307
 11460,  1.572,  2.195, 16.754,  2.555,  0.320
 11520,  1.602,  2.194, 15.596,  2.375,  0.305
 11580, -9999.000, -9999.000, -9999.000, -9999.000, -9999.000
 11640,  1.544,  2.315, 15.698,  2.401,  0.315
 11700,  1.509,  2.193, 15.957,  2.382,  0.280
 11760,  1.584,  2.552, 16.300,  2.559,  0.263
 11820,  1.562,  2.203, 16.109,  2.466,  0.263
 11880,  1.561,  2.379, 16.498,  2.304,  0.313
 11940,  1.584,  2.277, 15.698,  2.460,  0.302
 12000,  1.551,  2.280, 14.667,  2.388,  0.314
 12060,  1.595,  2.370, 17.152,  2.458,  0.329
 12120,  1.614,  2.278, 16.021,  2.479,  0.292
 12180,  1.579,  2.338, 16.385,  2.551,  0.299
 12240,  1.585,  2.498, 16.838,  2.610,  0.297
 12300,  1.650,  2.424, 16.649,  2.690,  0.365
 12360,  1.603,  2.290, 17.369,  2.713,  0.329
 12420,  1.634,  2.592, 16.576,  2.689,  0.300
 12480,  1.641,  2.714, 17.264,  2.668,  0.337
 12540,  1.695,  2.574, 17.494,  2.830,  0.353
 12600,  1.664,  2.669, 17.413,  2.944,  0.313
 12660,  1.658,  2.670, 18.231,  3.006,  0.313
 12720,  1.718,  2.715, 18.681,  3.042,  0.303
 12780,  1.693,  2.495, 17.700,  3.027,  0.354
 12840,  1.670,  2.732, 18.648,  2.912,  0.339
 12900,  1.727,  2.770, 19.790,  3.067,  0.328
 12960,  1.686,  2.692, 20.021,  3.197,  0.392
 13020,  1.671,  2.750, 19.149,  3.048,  0.335
 13080,  1.687,  2.590, 18.751,  3.099,  0.292
 13140,  1.674,  2.963, 20.106,  3.073,  0.395
 13200,  1.708,  2.922, 20.036,  3.313,  0.361
 13260,  1.738,  2.942, 20.501,  3.281,  0.348
 13320,  1.778,  3.368, 21.179,  3.398,  0.391
 13380,  1.738,  3.037, 22.175,  3.528,  0.376
 13440, -9999.000, -9999.000, -9999.000, -9999.000, -9999.000
 13500,  1.664,  2.831, 18.506,  3.458,  0.289
 13560,  1.694,  2.971, 18.777,  3.525,  0.365
 13620,  1.759,  2.778, 20.792,  3.701,  0.427
 13680,  1.775,  2.872, 20.667,  3.522,  0.408
 13740,  1.733,  3.015, 20.067,  3.778,  0.396
 13800,  1.743,  3.059, 21.008,  3.621,  0.378
 13860,  1.743,  2.869, 19.923,  3.453,  0.438
 13920,  1.741,  3.009, 20.811,  3.826,  0.425
 13980,  1.826,  2.998, 20.211,  3.643,  0.436
 14040,  1.803,  3.268, 20.560,  3.917,  0.434
 14100,  1.880,  3.071, 21.792,  3.825,  0.447
 14160,  1.854,  3.193, 22.279,  3.962,  0.506
 14220,  1.839,  3.109, 22.939,  4.046,  0.440
 14280,  1.877,  3.034, 22.798,  4.067,  0.444
 14340,  1.917,  3.214, 23.571,  4.136,  0.458
 14400,  1.862,  3.341, 22.341,  3.999,  0.466
 14460,  1.932,  3.546, 22.970,  4.320,  0.484
 14520,  1.928,  3.334, 22.785,  4.229,  0.457
 14580,  1.922,  3.276, 21.897,  4.355,  0.508
 14640,  1.921,  3.398, 23.344,  4.445,  0.477
 14700,  1.950,  2.977, 21.827,  4.499,  0.467
 14760,  1.975,  3.140, 21.572,  4.292,  0.478
 14820,  1.969,  3.187, 22.371,  4.327,  0.512
 14880,  1.979,  3.198, 23.251,  4.372,  0.463
 14940,  1.943,  3.357, 22.634,  4.327,  0.449
 15000,  1.964,  3.331, 23.609,  4.339,  0.420
 15060,  1.977,  3.559, 22.448,  4.435,  0.436
 15120,  1.998,  3.122, 22.452,  4.350,  0.419
 15180,  1.993,  3.365, 21.701,  4.433,  0.497
 15240,  1.945,  3.057, 20.704,  4.311,  0.490
 15300,  1.895,  2.829, 21.365,  3.988,  0.391
 15360,  1.951,  3.392, 21.788,  4.267,  0.463
 15420,  1.987,  3.319, 22.082,  4.228,  0.487
 15480,  1.944,  3.224, 22.215,  4.228,  0.506
 15540,  1.946,  3.432, 21.697,  4.205,  0.440
 15600,  1.942,  3.614, 20.786,  4.116,  0.394
 15660,  1.951,  3.433, 22.382,  4.168,  0.389
 15720,  1.983,  3.458, 22.413,  4.089,  0.403
 15780,  1.989,  3.387, 22.343,  4.004,  0.408
 15840,  2.005,  3.592, 21.329,  4.205,  0.375
 15900,  1.953,  3.741, 21.838,  4.109,  0.416
 15960,  1.973,  3.628, 21.691,  4.030,  0.388
 16020,  1.973,  3.887, 20.688,  3.969,  0.384
 16080,  1.926,  3.775, 19.657,  3.833,  0.385
 16140,  1.945,  3.712, 21.485,  3.810,  0.306
 16200,  1.922,  3.432, 21.475,  3.738,  0.407
 16260,  1.884,  3.722, 20.798,  3.747,  0.396
 16320,  1.958,  3.959, 21.354,  3.997,  0.397
 16380,  1.948,  3.574, 20.459,  3.759,  0.358
 16440,  1.934,  3.712, 20.930,  3.766,  0.349
 16500,  1.946,  3.769, 21.019,  3.816,  0.402
 16560,  1.947,  4.118, 20.252,  3.847,  0.390
 16620,  1.976,  3.941, 21.494,  3.914,  0.362
 16680,  2.110,  4.217, 22.916,  4.014,  0.368
 16740,  2.039,  4.205, 22.015,  3.897,  0.333
 16800,  1.996,  4.372, 21.626,  4.045,  0.333
 16860,  2.013,  4.356, 20.917,  4.061,  0.289
 16920,  2.042,  4.540, 21.982,  3.984,  0.341
 16980,  2.040,  4.796, 21.502,  4.105,  0.308
 17040,  1.989,  4.530, 21.092,  4.011,  0.265
 17100,  1.991,  4.605, 21.694,  4.032,  0.240
 17160,  2.047,  3.602, 19.557,  4.030,  0.190
 17220,  1.975,  4.346, 19.604,  3.885,  0.300
 17280,  1.996,  4.393, 20.662,  3.862,  0.294
 17340,  2.023,  4.272, 20.424,  3.885,  0.289
 17400,  1.993,  4.345, 21.463,  4.226,  0.300
 17460,  2.035,  4.440, 21.173,  4.204,  0.288
 17520,  2.026,  4.242, 20.421,  4.162,  0.295
 17580,  1.996,  4.372, 21.524,  4.178,  0.407
 17640,  2.027,  4.413, 22.693,  4.101,  0.345
 17700,  2.037,  4.317, 21.797,  4.190,  0.360
 17760,  2.006,  4.167, 21.006,  4.125,  0.394
 17820,  2.018,  4.375, 22.401,  3.931,  0.353
 17880,  1.953,  4.305, 21.429,  4.040,  0.304
 17940,  2.003,  4.282, 21.804,  4.248,  0.412
 18000,  2.016,  4.186, 22.145,  4.282,  0.387
 18060,  2.020,  4.444, 21.456,  4.278,  0.360
 18120,  1.989,  4.220, 20.392,  4.046,  0.360
 18180,  2.014,  4.511, 22.980,  4.396,  0.425
 18240,  2.079,  4.218, 22.475,  4.400,  0.390
 18300,  2.065,  4.139, 21.981,  4.258,  0.392
 18360,  2.018,  4.324, 22.873,  4.514,  0.390
 18420,  1.986,  4.224, 21.693,  4.312,  0.367
 18480,  2.039,  4.073, 22.574,  4.486,  0.469
 18540,  2.087,  4.406, 22.438,  4.607,  0.404
 18600,  2.073,  4.246, 21.698,  4.563,  0.430
 18660,  2.039,  4.088, 23.211,  4.524,  0.453
 18720,  2.085,  4.177, 22.479,  4.514,  0.420
 18780,  2.107,  4.437, 23.059,  4.552,  0.459
 18840,  2.082,  4.230, 23.634,  4.656,  0.440
 18900,  2.092,  4.420, 21.838,  4.505,  0.335
 18960,  2.012,  4.464, 21.274,  4.346,  0.608
 19020,  1.932,  3.917, 19.011,  4.247,  0.403
 19080,  2.037,  4.446, 20.928,  4.787,  0.454
 19140,  2.043,  4.558, 22.111,  4.744,  0.407
 19200,  2.113,  4.488, 21.217,  4.720,  0.420
 19260,  2.077,  4.627, 23.751,  4.818,  0.463
 19320,  2.058,  4.269, 23.145,  4.742,  0.457
 19380,  2.083,  4.401, 23.221,  4.570,  0.435
 19440,  2.053,  4.608, 22.735,  4.799,  0.428
 19500,  2.074,  4.433, 22.454,  4.778,  0.484
 19560,  2.074,  4.388, 22.925,  4.767,  0.400
 19620,  2.118,  4.585, 22.050,  4.957,  0.368
 19680,  2.107,  4.315, 21.964,  4.804,  0.425
 19740,  2.111,  4.406, 23.775,  4.776,  0.472
 19800,  2.122,  4.549, 23.657,  4.684,  0.463
 19860,  2.099,  4.503, 23.755,  4.675,  0.429
 19920,  2.024,  4.119, 23.265,  4.709,  0.436
 19980,  2.054,  4.494, 23.287,  4.802,  0.434
 20040,  2.092,  4.624, 23.669,  4.853,  0.458
 20100,  2.155,  4.511, 23.625,  4.889,  0.434
 20160,  2.159,  4.407, 22.731,  4.948,  0.386
 20220,  2.095,  4.314, 24.480,  4.744,  0.463
 20280,  2.063,  4.502, 23.286,  4.580,  0.446
 20340,  2.090,  4.316, 23.349,  4.465,  0.548
 20400,  2.086,  4.342, 23.827,  4.891,  0.456
 20460,  2.088,  4.332, 22.211,  4.831,  0.455
 20520,  2.078,  4.313, 24.521,  4.886,  0.495
 20580,  2.124,  4.474, 22.139,  4.781,  0.521
 20640,  2.067,  4.196, 22.160,  4.735,  0.431
 20700,  2.134,  4.492, 23.426,  4.883,  0.471
 20760,  2.098,  4.451, 23.100,  4.853,  0.495
 20820, -9999.000, -9999.000, -9999.000, -9999.000, -9999.000
 20880,  2.041,  4.334, 20.459,  4.607,  0.425
 20940,  2.124,  4.389, 21.139,  4.750,  0.433
 21000,  2.120,  4.508, 23.063,  4.712,  0.495
 21060,  2.134,  4.182, 22.573,  4.799,  0.466
 21120,  2.135,  4.477, 22.721,  4.908,  0.449
 21180,  2.104,  4.625, 22.659,  4.828,  0.458
 21240,  2.142,  4.865, 21.743,  4.957,  0.526
 21300,  2.244,  5.264, 24.636,  5.298,  0.712
 21360,  2.254,  5.557, 24.161,  5.383,  0.744
 21420,  2.280,  5.469, 23.374,  5.429,  0.699
 21480,  2.273,  5.932, 23.738,  5.577,  0.645
 21540,  2.353,  6.205, 23.682,  5.799,  0.641
 21600,  2.286,  5.385, 23.194,  5.604,  0.599
 21660,  2.314,  5.702, 24.522,  5.405,  0.735
 21720,  2.301,  5.514, 24.415,  5.338,  0.826
 21780,  2.277,  5.429, 24.319,  5.700,  0.793
 21840,  2.341,  5.665, 24.335,  5.470,  0.841
 21900,  2.332,  5.534, 23.807,  5.773,  0.989
 21960,  2.360,  5.890, 24.561,  5.987,  1.036
 22020,  2.381,  5.658, 24.457,  6.044,  1.079
 22080,  2.327,  5.672, 23.525,  5.811,  1.079
 22140,  2.398,  6.029, 24.973,  6.040,  1.216
 22200,  2.342,  5.819, 25.258,  5.878,  1.186
 22260,  2.375,  5.978, 24.344,  5.847,  1.068
 22320,  2.337,  6.144, 25.563,  6.149,  1.262
 22380,  2.371,  6.031, 24.139,  6.193,  1.212
 22440,  2.395,  6.264, 24.877,  6.265,  1.248
 22500,  2.374,  5.739, 24.566,  6.092,  1.111
 22560,  2.328,  5.788, 23.676,  6.186,  1.080
 22620,  2.368,  5.909, 24.879,  6.068,  1.162
 22680, -9999.000, -9999.000, -9999.000, -9999.000, -9999.000
 22740,  2.337,  5.517, 22.583,  5.736,  1.124
 22800,  2.349,  5.958, 22.781,  5.901,  1.093
 22860,  2.349,  5.856, 23.685,  6.103,  1.244
 22920,  2.378,  5.884, 23.761,  6.144,  1.213
 22980,  2.390,  6.123, 24.065,  6.220,  1.202
 23040,  2.427,  5.854, 24.228,  6.233,  1.181
 23100,  2.416,  6.098, 25.391,  6.264,  1.172
 23160,  2.411,  6.174, 25.055,  6.403,  1.179
 23220,  2.415,  6.026, 23.992,  6.448,  1.163
 23280,  2.410,  6.066, 25.303,  6.413,  1.279
 23340,  2.412,  6.050, 24.353,  6.251,  1.238
 23400,  2.411,  6.116, 22.299,  6.264,  1.177
 23460,  2.386,  6.208, 25.356,  6.257,  1.162
 23520,  2.348,  6.203, 25.464,  6.072,  1.151
 23580,  2.345,  6.173, 24.653,  6.200,  1.157
 23640,  2.302,  5.905, 24.826,  6.118,  1.139
 23700,  2.332,  6.146, 24.626,  6.022,  1.005
 23760,  2.271,  5.723, 24.220,  5.852,  0.949
 23820,  2.201,  5.797, 23.506,  5.667,  0.885
 23880,  2.212,  5.485, 23.237,  5.681,  0.865
 23940,  2.235,  5.632, 24.047,  5.645,  0.872
 24000,  2.333,  5.668, 24.631,  5.620,  0.905
 24060,  2.179,  5.359, 23.507,  5.499,  0.844
 24120,  2.252,  5.359, 24.178,  5.530,  0.757
 24180,  2.223,  5.558, 23.923,  5.611,  0.725
 24240,  2.198,  5.334, 22.496,  5.433,  0.696
 24300,  2.173,  5.430, 23.353,  5.418,  0.675
 24360,  2.195,  5.415, 24.044,  5.565,  0.716
 24420,  2.131,  5.341, 23.864,  5.377,  0.578
 24480,  2.115,  4.864, 24.120,  5.421,  0.657
 24540, -9999.000, -9999.000, -9999.000, -9999.000, -9999.000
 24600,  2.156,  5.109, 20.130,  5.346,  0.572
 24660,  2.237,  5.223, 21.667,  5.586,  0.621
 24720,  2.303,  5.397, 22.410,  5.664,  0.588
 24780,  2.250,  5.217, 22.901,  5.750,  0.631
 24840,  2.274,  5.275, 23.442,  5.770,  0.574
 24900,  2.219,  5.412, 23.568,  5.831,  0.572
 24960,  2.263,  5.128, 22.869,  5.635,  0.578
 25020,  2.235,  5.387, 24.056,  5.662,  0.653
 25080,  2.237,  5.291, 23.865,  5.918,  0.594
 25140,  2.278,  5.581, 24.066,  5.876,  0.662
 25200,  2.213,  5.348, 22.671,  5.788,  0.573
 25260,  2.215,  5.136, 24.451,  5.888,  0.669
 25320,  2.249,  5.513, 24.913,  5.766,  0.640
 25380,  2.304,  5.260, 23.829,  5.995,  0.594
 25440,  2.232,  5.455, 24.633,  6.014,  0.655
 25500,  2.299,  5.367, 23.984,  6.175,  0.588
 25560,  2.255,  5.372, 23.124,  6.083,  0.588
 25620,  2.294,  5.201, 25.348,  6.257,  0.617
 25680,  2.239,  5.442, 23.877,  5.960,  0.641
 25740,  2.320,  5.386, 23.966,  6.181,  0.661
 25800,  2.355,  5.112, 24.988,  6.299,  0.652
 25860,  2.299,  5.420, 23.816,  6.248,  0.580
 25920,  2.326,  5.591, 25.041,  6.359,  0.673
 25980,  2.281,  5.276, 24.356,  6.301,  0.583
 26040,  2.348,  5.184, 24.055,  6.339,  0.604
 26100,  2.369,  5.436, 24.910,  6.549,  0.624
 26160,  2.378,  5.459, 25.528,  6.586,  0.557
 26220,  2.345,  5.489, 25.389,  6.489,  0.564
 26280,  2.395,  5.251, 25.738,  6.586,  0.637
 26340,  2.329,  5.240, 26.182,  6.665,  0.684
 26400,  2.212,  5.205, 24.359,  6.462,  0.600
 26460,  2.253,  5.557, 23.402,  6.350,  0.613
 26520,  2.314,  5.242, 23.377,  6.490,  0.588
 26580,  2.326,  5.412, 24.671,  6.392,  0.674
 26640,  2.380,  5.544, 26.446,  6.533,  0.637
 26700,  2.406,  5.438, 25.059,  6.772,  0.586
 26760,  2.394,  5.401, 25.665,  7.058,  0.699
 26820,  2.447,  5.305, 25.399,  6.824,  0.613
 26880,  2.393,  5.249, 23.973,  6.731,  0.573
 26940,  2.453,  5.428, 26.048,  7.038,  0.661
 27000,  2.566,  6.005, 26.380,  7.490,  0.697
 27060,  2.494,  5.453, 26.451,  7.209,  0.687
 27120,  2.428,  5.568, 25.634,  6.926,  0.662
 27180,  2.432,  5.357, 26.099,  7.005,  0.641
 27240,  2.469,  5.293, 25.660,  7.211,  0.694
 27300,  2.434,  5.261, 25.376,  7.133,  0.675
 27360,  2.441,  5.296, 26.088,  6.842,  0.629
 27420,  2.472,  5.197, 25.731,  7.179,  0.679
 27480,  2.496,  5.002, 26.919,  7.162,  0.737
 27540,  2.460,  5.466, 26.120,  6.910,  0.744
 27600,  2.399,  5.114, 26.275,  6.874,  0.668
 27660,  2.397,  5.279, 25.656,  6.689,  0.687
 27720,  2.486,  5.141, 24.349,  6.949,  0.713
 27780,  2.490,  5.324, 25.242,  6.951,  0.688
 27840,  2.447,  5.252, 27.345,  7.246,  0.702
 27900,  2.454,  5.152, 25.894,  6.959,  0.692
 27960,  2.459,  5.275, 26.208,  6.995,  0.702
 28020,  2.445,  5.156, 25.814,  7.006,  0.664
 28080,  2.404,  5.085, 25.167,  6.720,  0.644
 28140,  2.382,  5.157, 25.396,  6.763,  0.721
 28200, -9999.000, -9999.000, -9999.000, -9999.000, -9999.000
 28260,  2.210,  4.568, 22.054,  6.100,  0.639
 28320,  2.320,  4.991, 22.706,  6.401,  0.588
 28380,  2.339,  5.309, 24.821,  6.872,  0.693
 28440,  2.356,  5.221, 23.807,  6.712,  0.664
 28500,  2.339,  4.959, 24.894,  6.781,  0.706
 28560,  2.362,  5.026, 24.504,  6.741,  0.649
 28620,  2.398,  5.073, 25.168,  6.933,  0.753
 28680,  2.425,  4.978, 26.001,  6.939,  0.668
 28740,  2.370,  5.001, 25.306,  6.772,  0.654
 28800,  2.325,  5.276, 25.890,  6.745,  0.725
 28860,  2.308,  4.958, 24.998,  6.381,  0.704
 28920,  2.305,  4.796, 24.550,  6.534,  0.673
 28980,  2.327,  4.686, 25.538,  6.562,  0.623
 29040,  2.313,  4.762, 25.794,  6.570,  0.741
 29100,  2.306,  5.044, 25.027,  6.463,  0.687
 29160,  2.317,  4.593, 24.721,  6.665,  0.680
 29220,  2.310,  4.729, 24.933,  6.405,  0.695
 29280,  2.315,  4.522, 24.841,  6.108,  0.681
 29340,  2.319,  4.740, 24.089,  6.384,  0.638
 29400,  2.331,  4.736, 24.235,  6.284,  0.602
 29460,  2.348,  4.918, 24.864,  6.699,  0.707
 29520,  2.354,  4.956, 25.213,  6.660,  0.712
 29580,  2.345,  4.553, 24.051,  6.428,  0.666
 29640,  2.319,  4.992, 24.472,  6.570,  0.623
 29700,  2.371,  4.921, 24.746,  6.623,  0.667
 29760,  2.375,  4.697, 23.938,  6.554,  0.690
 29820,  2.349,  4.884, 24.707,  6.734,  0.777
 29880,  2.461,  4.928, 25.172,  6.882,  0.796
 29940,  2.485,  5.136, 24.249,  7.000,  0.855
 30000,  2.570,  5.158, 25.649,  7.469,  1.050
 30060, -9999.000, -9999.000, -9999.000, -9999.000, -9999.000
 30120,  2.328,  4.841, 21.747,  6.555,  0.932
 30180,  2.474,  5.065, 24.225,  7.207,  1.160
 30240,  2.510,  5.139, 24.558,  6.942,  1.222
 30300,  2.438,  4.859, 24.492,  6.858,  1.131
 30360,  2.513,  5.191, 25.129,  7.196,  1.306
 30420,  2.438,  5.275, 24.229,  7.312,  1.230
 30480,  2.452,  4.984, 24.543,  7.149,  1.307
 30540,  2.475,  5.071, 24.663,  6.972,  1.320
 30600,  2.491,  5.119, 24.562,  7.084,  1.467
 30660,  2.463,  5.249, 25.175,  7.237,  1.420
 30720,  2.480,  5.227, 25.383,  7.173,  1.454
 30780,  2.481,  5.383, 25.087,  6.955,  1.420
 30840,  2.468,  5.247, 25.359,  7.081,  1.482
 30900,  2.488,  5.106, 24.879,  7.009,  1.365
 30960,  2.464,  5.221, 25.291,  6.905,  1.445
 31020,  2.466,  5.139, 25.458,  6.847,  1.462
 31080,  2.438,  5.211, 25.895,  6.845,  1.472
 31140,  2.409,  5.075, 24.669,  6.911,  1.482
 31200,  2.457,  5.245, 25.513,  7.014,  1.548
 31260,  2.483,  5.232, 24.526,  6.977,  1.514
 31320,  2.422,  5.237, 24.367,  6.873,  1.532
 31380,  2.437,  5.281, 26.345,  6.749,  1.644
 31440,  2.434,  5.413, 26.053,  6.864,  1.574
 31500,  2.454,  5.177, 25.334,  6.954,  1.600
 31560,  2.429,  5.089, 25.231,  6.755,  1.682
 31620,  2.418,  5.242, 25.694,  6.941,  1.568
 31680,  2.418,  5.297, 24.393,  6.670,  1.445
 31740,  2.409,  5.674, 25.783,  6.815,  1.588
 31800,  2.463,  5.246, 26.290,  6.682,  1.569
 31860,  2.409,  5.249, 24.861,  6.657,  1.709
 31920, -9999.000, -9999.000, -9999.000, -9999.000, -9999.000
 31980,  2.364,  4.846, 22.281,  6.438,  1.571
 32040,  2.373,  5.158, 22.754,  6.641,  1.611
 32100,  2.429,  5.198, 24.350,  6.589,  1.715
 32160,  2.352,  5.050, 25.088,  6.358,  1.648
 32220,  2.408,  5.232, 24.473,  6.661,  1.694
 32280,  2.395,  5.273, 24.797,  6.562,  1.742
 32340,  2.371,  5.199, 23.661,  6.660,  1.723
 32400,  2.404,  5.757, 23.928,  6.956,  1.397
 32460,  2.418,  5.187, 25.087,  6.934,  1.499
 32520,  2.421,  5.520, 25.882,  7.047,  1.557
 32580,  2.377,  5.299, 24.317,  7.392,  1.233
 32640,  2.350,  5.583, 24.820,  7.237,  1.099
 32700,  2.423,  5.760, 24.585,  7.296,  0.972
 32760,  2.368,  5.466, 24.630,  7.383,  1.024
 32820,  2.383,  5.645, 26.211,  7.368,  1.063
 32880,  2.343,  5.423, 26.414,  7.056,  1.168
 32940,  2.388,  5.157, 24.732,  6.850,  1.227
 33000,  2.443,  5.502, 25.419,  7.607,  1.115
 33060,  2.402,  5.555, 25.084,  7.577,  1.114
 33120,  2.401,  5.195, 24.315,  7.032,  1.184
 33180,  2.394,  5.319, 26.195,  7.047,  1.205
 33240,  2.418,  5.379, 25.419,  7.261,  1.269
 33300,  2.340,  5.235, 24.987,  6.983,  1.151
 33360,  2.313,  5.044, 26.145,  6.937,  1.194
 33420,  2.273,  4.997, 24.581,  6.678,  1.126
 33480,  2.417,  5.188, 24.095,  7.135,  1.145
 33540,  2.402,  5.421, 25.173,  7.355,  1.118
 33600,  2.387,  5.151, 26.619,  7.231,  1.161
 33660,  2.355,  4.961, 26.050,  7.021,  1.168
 33720,  2.404,  5.092, 26.294,  7.013,  1.172
 33780,  2.272,  4.637, 21.737,  6.295,  1.203
 33840,  2.246,  5.067, 22.337,  6.480,  1.080
 33900,  2.351,  4.960, 24.948,  6.894,  1.307
 33960,  2.360,  5.162, 25.748,  6.917,  1.237
 34020,  2.341,  5.104, 24.807,  6.884,  1.062
 34080,  2.308,  4.922, 25.714,  7.042,  1.065
 34140,  2.315,  4.929, 25.398,  7.083,  1.141
 34200,  2.327,  4.909, 24.356,  7.085,  1.041
 34260,  2.339,  5.156, 25.936,  7.337,  1.009
 34320,  2.360,  5.277, 26.376,  7.535,  1.015
 34380,  2.327,  5.067, 26.261,  7.178,  1.023
 34440,  2.302,  5.093, 25.824,  7.233,  1.066
 34500,  2.286,  5.257, 26.061,  7.161,  1.034
 34560,  2.341,  5.110, 24.808,  7.121,  0.965
 34620,  2.346,  5.186, 26.919,  7.407,  1.045
 34680,  2.327,  5.047, 27.286,  7.244,  1.143
 34740,  2.351,  5.175, 26.244,  7.365,  0.974
 34800,  2.383,  5.018, 26.781,  7.515,  1.067
 34860,  2.361,  5.245, 26.562,  7.529,  1.065
 34920,  2.406,  5.082, 26.531,  7.658,  1.008
 34980,  2.415,  5.278, 28.172,  7.534,  0.959
 35040,  2.377,  5.166, 28.125,  7.358,  0.974
 35100,  2.303,  5.247, 27.281,  7.358,  0.988
 35160,  2.270,  5.006, 27.684,  7.094,  0.983
 35220,  2.309,  5.285, 27.237,  7.179,  0.949
 35280,  2.288,  5.050, 26.312,  7.159,  0.997
 35340,  2.286,  5.018, 27.659,  7.143,  0.924
 35400,  2.328,  5.291, 28.024,  7.286,  0.982
 35460,  2.345,  4.919, 27.434,  7.056,  0.982
 35520,  2.343,  4.924, 26.900,  7.244,  1.010
 35580,  2.454,  4.729, 27.739,  6.813,  0.757
 35640,  2.256,  4.452, 23.181,  6.650,  0.950
 35700,  2.264,  4.810, 25.280,  6.964,  0.815
 35760,  2.321,  5.038, 26.077,  7.195,  0.986
 35820,  2.319,  4.942, 26.528,  7.000,  1.005
 35880,  2.339,  4.697, 26.006,  7.065,  0.930
 35940,  2.348,  4.963, 25.971,  7.280,  1.014
 36000,  2.290,  4.810, 26.472,  6.984,  1.006
 36060,  2.216,  4.684, 26.882,  6.872,  1.028
 36120,  2.285,  5.133, 27.608,  7.001,  1.061
 36180,  2.299,  5.031, 26.445,  6.794,  1.023
 36240,  2.255,  4.779, 26.744,  6.906,  0.944
 36300,  2.260,  4.725, 26.304,  6.666,  1.052
 36360,  2.203,  4.501, 26.463,  6.363,  0.991
 36420,  2.244,  5.089, 25.950,  6.474,  1.064
 36480,  2.286,  4.970, 26.786,  7.004,  1.065
 36540,  2.293,  4.881, 25.297,  6.612,  1.146
 36600,  2.241,  4.539, 26.381,  6.804,  1.048
 36660,  2.211,  4.918, 25.784,  6.775,  0.996
 36720,  2.301,  5.166, 27.644,  7.001,  0.971
 36780,  2.361,  5.184, 27.857,  7.113,  0.959
 36840,  2.472,  5.258, 29.251,  7.728,  0.914
 36900,  2.468,  5.216, 28.679,  7.456,  0.892
 36960,  2.429,  4.997, 28.946,  7.303,  0.843
 37020,  2.322,  5.142, 28.658,  6.900,  0.914
 37080,  2.336,  4.780, 28.842,  6.824,  1.083
 37140,  2.329,  4.954, 28.180,  6.945,  1.088
 37200,  2.321,  4.809, 28.588,  6.892,  1.127
 37260,  2.463,  5.107, 28.778,  7.493,  0.975
 37320,  2.545,  5.058, 29.027,  7.523,  0.824
 37380,  2.572,  5.224, 31.831,  7.692,  1.005
 37440,  2.520,  4.610, 32.800,  7.781,  1.053
 37500,  2.421,  5.325, 28.685,  7.227,  0.815
 37560,  2.474,  5.261, 31.148,  7.546,  0.795
 37620,  2.549,  5.240, 30.682,  7.510,  0.903
 37680,  2.494,  5.268, 30.538,  7.518,  0.826
 37740,  2.418,  5.351, 31.851,  7.268,  1.002
 37800,  2.401,  5.169, 32.569,  7.114,  0.979
 37860,  2.389,  5.037, 31.380,  7.190,  0.933
 37920,  2.479,  5.290, 31.810,  7.154,  0.899
 37980,  2.476,  5.167, 31.874,  7.109,  0.952
 38040,  2.452,  5.251, 32.493,  7.232,  0.859
 38100,  2.492,  5.173, 33.691,  7.257,  0.948
 38160,  2.507,  5.171, 33.736,  7.039,  1.006
 38220,  2.430,  5.312, 33.446,  6.892,  0.876
 38280,  2.460,  5.344, 33.311,  7.069,  0.896
 38340,  2.498,  5.140, 33.475,  7.086,  0.922
 38400,  2.475,  5.567, 34.527,  7.126,  0.925
 38460,  2.484,  5.415, 35.438,  7.244,  0.886
 38520,  2.442,  5.246, 34.718,  6.995,  0.921
 38580,  2.472,  5.418, 34.352,  7.144,  0.967
 38640,  2.476,  5.522, 35.181,  7.091,  0.913
 38700,  2.492,  5.347, 35.022,  7.027,  0.910
 38760,  2.525,  5.302, 34.737,  7.036,  0.924
 38820,  2.475,  5.619, 36.314,  7.270,  0.955
 38880,  2.482,  5.276, 35.462,  6.921,  0.945
 38940,  2.446,  5.475, 35.184,  7.028,  0.961
 39000,  2.467,  5.363, 34.737,  7.006,  0.962
 39060,  2.447,  5.356, 34.373,  6.944,  0.911
 39120,  2.464,  5.476, 34.196,  6.877,  0.900
 39180,  2.432,  5.320, 35.496,  6.715,  1.040
 39240,  2.446,  5.211, 35.207,  6.922,  0.801
 39300, -9999.000, -9999.000, -9999.000, -9999.000, -9999.000
 39360,  2.392,  5.357, 29.629,  6.669,  0.895
 39420,  2.443,  5.294, 31.405,  6.780,  0.929
 39480,  2.479,  5.392, 31.232,  6.816,  0.856
 39540,  2.553,  5.237, 33.181,  7.113,  1.052
 39600,  2.517,  5.492, 33.614,  7.023,  1.111
 39660,  2.491,  5.052, 33.132,  6.727,  0.965
 39720,  2.382,  5.225, 32.238,  6.730,  0.991
 39780,  2.473,  5.179, 31.956,  6.698,  0.952
 39840,  2.505,  5.092, 32.688,  6.722,  1.022
 39900,  2.481,  5.264, 33.484,  6.932,  1.029
 39960,  2.551,  5.555, 34.710,  7.006,  1.047
 40020,  2.542,  5.424, 33.182,  6.804,  1.005
 40080,  2.463,  5.164, 32.658,  6.753,  1.049
 40140,  2.447,  5.246, 31.960,  6.878,  1.053
 40200,  2.515,  5.159, 32.182,  6.781,  1.048
 40260,  2.471,  5.049, 32.982,  6.916,  1.173
 40320,  2.525,  5.395, 33.670,  6.880,  1.050
 40380,  2.552,  5.277, 33.652,  6.959,  0.965
 40440,  2.570,  5.140, 33.710,  6.920,  0.951
 40500,  2.520,  5.189, 32.930,  6.760,  0.917
 40560,  2.462,  4.953, 33.440,  6.457,  0.982
 40620,  2.469,  4.888, 33.337,  6.511,  1.046
 40680,  2.589,  5.234, 35.080,  6.813,  1.036
 40740,  2.643,  5.333, 34.727,  6.789,  0.936
 40800,  2.646,  5.275, 35.350,  6.877,  0.869
 40860,  2.609,  5.417, 36.196,  6.915,  0.999
 40920,  2.668,  5.208, 36.253,  7.023,  0.915
 40980,  2.688,  5.153, 37.396,  7.081,  0.956
 41040,  2.682,  5.483, 37.897,  6.981,  0.915
 41100,  2.619,  5.211, 37.699,  6.935,  0.955
 41160, -9999.000, -9999.000, -9999.000, -9999.000, -9999.000
 41220,  2.619,  5.123, 34.617,  6.479,  0.904
 41280,  2.697,  4.952, 37.005,  6.612,  0.908
 41340,  2.604,  5.069, 36.509,  6.725,  0.993
 41400,  2.566,  5.027, 36.158,  6.696,  0.853
 41460,  2.506,  5.031, 36.696,  6.639,  0.889
 41520,  2.583,  5.050, 35.276,  6.437,  0.936
 41580,  2.611,  4.952, 35.495,  6.785,  0.923
 41640,  2.605,  5.154, 36.879,  6.691,  0.933
 41700,  2.616,  4.929, 36.926,  6.691,  0.957
 41760,  2.626,  5.186, 36.835,  6.939,  0.927
 41820,  2.602,  5.008, 37.262,  6.715,  0.900
 41880,  2.576,  4.983, 35.650,  6.770,  0.888
 41940,  2.634,  4.972, 36.147,  6.650,  0.828
 42000,  2.636,  5.131, 37.863,  6.854,  1.042
 42060,  2.481,  5.057, 35.603,  6.459,  0.912
 42120,  2.553,  5.021, 35.398,  6.613,  0.940
 42180,  2.588,  4.935, 35.314,  6.581,  1.023
 42240,  2.616,  5.196, 35.523,  6.562,  0.896
 42300,  2.501,  4.907, 35.578,  6.516,  0.916
 42360,  2.547,  4.995, 35.944,  6.442,  0.944
 42420,  2.497,  5.000, 35.518,  6.518,  0.971
 42480,  2.610,  5.173, 35.367,  6.712,  0.940
 42540,  2.567,  4.840, 35.389,  6.419,  0.915
 42600,  2.521,  4.791, 35.757,  6.619,  0.915
 42660,  2.534,  5.010, 34.967,  6.510,  0.857
 42720,  2.531,  5.072, 35.691,  6.584,  0.961
 42780,  2.577,  5.009, 36.004,  6.560,  0.868
 42840,  2.521,  4.637, 33.821,  6.500,  0.931
 42900,  2.516,  4.869, 34.680,  6.549,  0.863
 42960,  2.541,  5.076, 35.545,  6.460,  1.077
 43020, -9999.000, -9999.000, -9999.000, -9999.000, -9999.000
 43080,  2.488,  4.856, 30.815,  6.190,  0.821
 43140,  2.497,  4.999, 32.635,  6.302,  0.851
 43200,  2.520,  4.826, 32.380,  6.376,  0.871
 43260,  2.548,  4.841, 32.907,  6.407,  0.918
 43320,  2.523,  4.850, 33.878,  6.517,  0.922
 43380,  2.546,  4.905, 34.871,  6.515,  0.877
 43440,  2.515,  5.090, 35.672,  6.631,  0.942
 43500,  2.571,  5.059, 35.293,  6.863,  0.861
 43560,  2.601,  5.057, 34.033,  6.708,  0.806
 43620,  2.645,  5.381, 35.240,  6.658,  0.789
 43680,  2.692,  5.487, 37.327,  6.994,  1.006
 43740,  2.692,  5.089, 37.306,  7.006,  0.876
 43800,  2.703,  5.471, 38.270,  7.020,  0.972
 43860,  2.663,  5.024, 37.439,  7.132,  0.954
 43920,  2.642,  5.043, 36.907,  6.824,  0.867
 43980,  2.637,  4.995, 37.530,  6.886,  0.924
 44040,  2.630,  5.291, 38.644,  6.811,  0.962
 44100,  2.614,  5.102, 38.169,  6.753,  0.972
 44160,  2.602,  5.147, 38.245,  6.440,  0.896
 44220,  2.524,  5.173, 37.762,  6.640,  0.867
 44280,  2.573,  5.174, 36.620,  6.664,  0.834
 44340,  2.581,  5.368, 37.895,  6.803,  0.893
 44400,  2.604,  5.432, 38.498,  6.855,  0.856
 44460,  2.611,  5.405, 38.511,  6.605,  0.800
 44520,  2.553,  5.052, 37.405,  6.453,  0.806
 44580,  2.588,  5.210, 36.807,  6.475,  0.755
 44640,  2.622,  5.335, 37.840,  6.659,  0.825
 44700,  2.677,  5.311, 38.667,  6.566,  0.891
 44760,  2.623,  5.156, 38.583,  6.663,  0.996
 44820,  2.599,  5.624, 38.505,  6.775,  0.853
 44880,  2.566,  5.142, 34.441,  6.307,  0.730
 44940,  2.594,  5.018, 35.982,  6.252,  0.875
 45000,  2.645,  5.429, 36.951,  6.789,  0.804
 45060,  2.638,  5.436, 38.272,  6.994,  0.842
 45120,  2.645,  5.074, 38.701,  6.565,  0.804
 45180,  2.584,  5.084, 38.522,  6.505,  0.804
 45240,  2.615,  4.858, 36.041,  6.448,  0.785
 45300,  2.579,  5.285, 37.776,  6.471,  0.895
 45360,  2.617,  5.221, 39.213,  6.484,  0.883
 45420,  2.690,  5.268, 38.009,  6.660,  0.825
 45480,  2.673,  5.187, 38.485,  6.509,  0.848
 45540,  2.723,  5.268, 38.664,  7.016,  0.934
 45600,  2.713,  5.255, 37.621,  6.689,  0.897
 45660,  2.718,  4.767, 38.532,  6.446,  0.865
 45720,  2.735,  5.152, 40.218,  6.708,  0.947
 45780,  2.706,  5.142, 38.662,  6.611,  0.945
 45840,  2.663,  5.241, 38.888,  6.628,  0.972
 45900,  2.645,  5.026, 38.904,  6.426,  0.895
 45960,  2.616,  5.120, 38.219,  6.289,  0.926
 46020,  2.661,  4.762, 37.308,  6.201,  0.833
 46080,  2.597,  4.952, 37.991,  6.195,  0.903
 46140,  2.689,  4.865, 38.369,  6.259,  0.901
 46200,  2.568,  4.723, 37.277,  6.305,  0.832
 46260,  2.584,  4.795, 35.811,  5.993,  0.920
 46320,  2.644,  4.971, 36.868,  6.090,  0.885
 46380,  2.576,  4.879, 36.676,  5.987,  0.949
 46440,  2.673,  4.964, 37.260,  6.214,  0.871
 46500,  2.680,  4.897, 37.345,  6.330,  0.893
 46560,  2.652,  4.683, 36.348,  6.317,  0.892
 46620,  2.660,  4.992, 36.938,  6.431,  0.926
 46680, -9999.000, -9999.000, -9999.000, -9999.000, -9999.000
 46740,  2.576,  4.615, 32.482,  5.865,  0.902
 46800,  2.673,  4.892, 33.252,  6.237,  0.937
 46860,  2.794,  6.000, 37.626,  7.262,  1.208
 46920,  3.027,  6.249, 38.928,  7.610,  1.470
 46980,  3.040,  5.832, 39.594,  7.494,  1.373
 47040,  2.952,  5.919, 39.989,  7.043,  1.161
 47100,  2.927,  5.643, 41.000,  7.259,  1.167
 47160,  2.861,  5.531, 38.663,  6.799,  1.172
 47220,  2.777,  5.366, 39.044,  6.727,  1.073
 47280,  2.735,  5.151, 37.765,  6.593,  1.069
 47340,  2.729,  4.858, 36.965,  6.345,  1.029
 47400,  2.814,  5.192, 38.097,  6.614,  1.037
 47460,  2.797,  5.052, 38.060,  6.608,  1.009
 47520,  2.819,  4.797, 36.311,  6.319,  0.933
 47580,  2.895,  4.974, 36.887,  6.455,  0.973
 47640,  2.828,  5.106, 35.514,  6.476,  0.886
 47700,  2.907,  4.750, 36.475,  6.316,  0.923
 47760,  2.916,  4.719, 37.192,  6.468,  1.061
 47820,  2.835,  4.801, 36.125,  6.309,  0.875
 47880,  2.803,  4.530, 35.079,  6.223,  0.850
 47940,  2.807,  4.742, 35.145,  6.122,  0.933
 48000,  2.773,  4.684, 32.956,  5.961,  0.743
 48060,  2.845,  4.742, 33.484,  6.171,  0.893
 48120,  2.866,  4.676, 35.025,  6.274,  0.984
 48180,  2.888,  4.754, 33.806,  6.165,  0.908
 48240,  2.895,  4.652, 34.198,  6.060,  0.880
 48300,  2.818,  4.546, 33.247,  6.173,  0.938
 48360,  2.693,  4.341, 31.585,  5.749,  0.841
 48420,  2.765,  4.468, 32.885,  5.887,  0.855
 48480,  2.849,  4.640, 32.608,  6.184,  0.821
 48540, -9999.000, -9999.000, -9999.000, -9999.000, -9999.000
 48600,  2.829,  4.776, 29.257,  5.882,  0.844
 48660,  2.869,  4.510, 30.441,  6.029,  0.907
 48720,  2.869,  4.578, 29.319,  6.022,  0.800
 48780,  2.913,  4.594, 29.927,  5.833,  0.824
 48840,  2.951,  4.607, 30.005,  5.888,  0.926
 48900,  2.964,  4.944, 30.959,  5.966,  0.883
 48960,  2.949,  5.049, 31.836,  6.066,  0.852
 49020,  2.921,  4.802, 31.401,  6.031,  0.838
 49080,  2.861,  4.793, 30.252,  5.808,  0.849
 49140,  2.891,  5.210, 30.255,  6.059,  0.823
 49200,  2.839,  5.107, 30.485,  5.963,  0.879
 49260,  2.854,  5.046, 32.016,  6.029,  0.828
 49320,  2.871,  5.325, 32.196,  6.043,  0.790
 49380,  2.879,  5.009, 31.210,  5.812,  0.856
 49440,  2.891,  5.395, 31.421,  5.967,  0.892
 49500,  2.858,  5.160, 31.384,  5.812,  0.938
 49560,  2.890,  5.253, 29.828,  5.830,  0.849
 49620,  2.958,  5.110, 31.500,  5.877,  0.766
 49680,  2.931,  5.251, 32.983,  5.912,  0.865
 49740,  2.986,  5.414, 31.431,  5.996,  0.905
 49800,  2.957,  5.488, 31.040,  5.990,  0.826
 49860,  2.923,  5.415, 31.835,  6.067,  0.888
 49920,  2.913,  5.541, 30.961,  5.998,  0.866
 49980,  2.987,  5.972, 32.101,  5.979,  0.859
 50040,  2.974,  5.738, 32.997,  5.870,  0.821
 50100,  2.973,  6.265, 33.037,  6.057,  0.791
 50160,  3.009,  5.816, 33.453,  6.008,  0.874
 50220,  3.039,  6.045, 32.431,  5.969,  0.827
 50280,  3.086,  6.426, 32.631,  5.931,  0.785
 50340,  3.040,  6.544, 33.205,  5.900,  0.917
 50400, -9999.000, -9999.000, -9999.000, -9999.000, -9999.000
 50460,  3.108,  6.993, 29.329,  5.708,  0.805
 50520,  3.092,  7.015, 31.871,  6.053,  0.777
 50580,  3.161,  7.177, 32.009,  6.131,  0.781
 50640,  3.154,  7.324, 32.452,  5.960,  0.867
 50700,  3.116,  7.365, 33.061,  6.164,  0.788
 50760,  3.161,  7.333, 33.196,  6.155,  0.811
 50820,  3.201,  7.572, 33.233,  6.180,  0.891
 50880,  3.245,  7.274, 33.514,  5.946,  0.869
 50940,  3.294,  7.865, 32.788,  6.117,  0.914
 51000,  3.308,  7.581, 32.955,  6.178,  0.904
 51060,  3.358,  8.232, 33.525,  6.063,  1.004
 51120,  3.427,  8.530, 34.495,  6.149,  0.973
 51180,  3.454,  8.742, 33.941,  6.180,  0.934
 51240,  3.502,  8.584, 32.677,  6.098,  0.898
 51300,  3.565,  8.460, 32.192,  6.110,  0.918
 51360,  3.705,  7.495, 31.349,  6.305,  0.903
 51420,  3.755,  5.955, 30.576,  6.227,  0.980
 51480,  3.687,  6.733, 31.995,  6.123,  0.986
 51540,  3.666,  7.917, 32.390,  6.232,  0.941
 51600,  3.715,  9.628, 33.855,  6.240,  1.089
 51660,  3.799, 10.891, 35.002,  6.361,  1.052
 51720,  3.854, 11.121, 35.547,  6.438,  1.143
 51780,  3.849, 11.487, 34.024,  6.374,  1.108
 51840,  3.851, 10.740, 33.936,  6.274,  1.169
 51900,  3.934, 10.562, 33.568,  6.459,  1.150
 51960,  3.926, 10.840, 32.701,  6.458,  1.063
 52020,  3.964, 10.700, 32.895,  6.300,  1.211
 52080,  3.996, 10.178, 33.242,  6.426,  1.235
 52140,  4.090,  9.864, 32.610,  6.507,  1.321
 52200,  4.190,  9.920, 29.971,  6.436,  1.300
 52260,  4.243,  6.568, 26.466,  6.535,  1.092
 52320,  4.432,  7.170, 27.696,  6.727,  1.172
 52380,  4.517,  6.793, 27.965,  6.660,  1.240
 52440,  4.526,  6.835, 29.324,  6.943,  1.200
 52500,  4.549,  7.167, 29.276,  6.792,  1.342
 52560,  4.600,  7.116, 29.106,  6.814,  1.149
 52620,  4.663,  6.944, 29.659,  6.889,  1.272
 52680,  4.744,  7.242, 30.658,  7.004,  1.249
 52740,  4.665,  7.539, 30.072,  6.974,  1.232
 52800,  4.638,  7.643, 30.970,  6.879,  1.260
 52860,  4.786,  8.868, 30.011,  6.967,  1.343
 52920,  4.828,  8.444, 30.545,  7.014,  1.318
 52980,  4.873,  8.772, 30.956,  7.078,  1.282
 53040,  5.021,  9.463, 30.906,  6.953,  1.277
 53100,  4.919,  8.985, 32.020,  6.944,  1.386
 53160,  5.051,  9.317, 30.481,  6.938,  1.170
 53220,  5.043,  9.249, 31.357,  7.030,  1.269
 53280,  5.047,  9.922, 31.675,  6.991,  1.242
 53340,  5.152, 10.038, 31.532,  6.960,  1.322
 53400,  5.175, 10.389, 32.290,  6.997,  1.250
 53460,  5.166, 10.227, 31.913,  6.925,  1.294
 53520,  5.242, 10.401, 30.968,  6.963,  1.249
 53580,  5.161,  9.670, 31.468,  6.845,  1.290
 53640,  5.335, 10.837, 30.967,  7.038,  1.142
 53700,  5.334, 10.344, 31.631,  6.844,  1.034
 53760,  5.435, 10.435, 31.521,  6.987,  1.020
 53820,  5.503, 12.073, 33.771,  7.128,  1.009
 53880,  5.587, 12.919, 34.076,  6.951,  1.040
 53940,  5.619, 13.681, 34.314,  6.945,  1.095
 54000,  5.748, 14.445, 34.133,  7.226,  1.087
 54060, -9999.000, -9999.000, -9999.000, -9999.000, -9999.000
 54120,  5.839, 17.039, 29.416,  6.740,  1.116
 54180,  6.096, 16.909, 31.104,  6.861,  1.145
 54240,  6.080, 16.895, 31.778,  7.284,  1.197
 54300,  6.093, 16.696, 32.788,  7.233,  1.163
 54360,  6.213, 19.533, 34.062,  7.371,  1.257
 54420,  6.325, 20.197, 33.514,  7.404,  1.284
 54480,  6.605, 22.710, 34.940,  7.587,  1.344
 54540,  7.011, 25.548, 35.804,  7.811,  1.398
 54600,  7.012, 27.147, 34.820,  7.762,  1.601
 54660,  7.225, 29.804, 36.157,  7.924,  1.691
 54720,  7.460, 30.363, 36.192,  7.970,  1.773
 54780,  7.745, 31.894, 35.466,  8.077,  1.810
 54840,  8.356, 38.598, 35.119,  8.095,  1.817
 54900,  8.730, 41.602, 35.255,  8.350,  1.785
 54960,  8.733, 40.642, 34.927,  8.102,  1.975
 55020,  8.622, 39.982, 36.015,  8.157,  1.827
 55080,  8.773, 40.157, 34.986,  8.302,  1.861
 55140,  8.776, 39.719, 34.675,  8.246,  1.897
 55200,  8.804, 39.836, 33.900,  8.392,  1.847
 55260,  8.625, 34.767, 33.568,  8.069,  1.616
 55320,  8.323, 32.707, 33.804,  7.965,  1.565
 55380,  8.311, 32.032, 34.036,  7.959,  1.657
 55440,  8.232, 31.692, 33.339,  8.028,  1.488
 55500,  8.608, 32.127, 34.205,  8.178,  1.484
 55560,  8.601, 32.364, 35.071,  8.190,  1.534
 55620,  8.607, 32.957, 33.860,  8.212,  1.555
 55680,  8.707, 33.325, 33.896,  8.034,  1.521
 55740,  8.962, 34.291, 34.783,  8.189,  1.484
 55800,  8.888, 33.921, 33.167,  8.102,  1.542
 55860,  8.842, 34.105, 33.136,  8.180,  1.504
 55920,  8.913, 33.244, 35.182,  8.087,  1.441
 55980,  8.913, 34.439, 31.831,  7.911,  1.476
 56040,  8.708, 32.374, 33.114,  7.648,  1.586
 56100,  8.301, 29.315, 32.785,  7.617,  1.418
 56160,  8.033, 27.613, 32.957,  7.416,  1.364
 56220,  8.262, 28.347, 31.890,  7.494,  1.460
 56280,  7.773, 25.463, 32.031,  7.274,  1.376
 56340,  7.795, 25.825, 31.973,  7.391,  1.360
 56400,  8.136, 27.868, 34.040,  7.289,  1.436
 56460, -9999.000, -9999.000, -9999.000, -9999.000, -9999.000
 56520, -9999.000, -9999.000, -9999.000, -9999.000, -9999.000
 56580, -9999.000, -9999.000, -9999.000, -9999.000, -9999.000
 56640, -9999.000, -9999.000, -9999.000, -9999.000, -9999.000
 56700, -9999.000, -9999.000, -9999.000, -9999.000, -9999.000
 56760, -9999.000, -9999.000, -9999.000, -9999.000, -9999.000
 56820, -9999.000, -9999.000, -9999.000, -9999.000, -9999.000
 56880, -9999.000, -9999.000, -9999.000, -9999.000, -9999.000
 56940, -9999.000, -9999.000, -9999.000, -9999.000, -9999.000
 57000, -9999.000, -9999.000, -9999.000, -9999.000, -9999.000
 57060, -9999.000, -9999.000, -9999.000, -9999.000, -9999.000
 57120, -9999.000, -9999.000, -9999.000, -9999.000, -9999.000
 57180, -9999.000, -9999.000, -9999.000, -9999.000, -9999.000
 57240, -9999.000, -9999.000, -9999.000, -9999.000, -9999.000
 57300, -9999.000, -9999.000, -9999.000, -9999.000, -9999.000
 57360, -9999.000, -9999.000, -9999.000, -9999.000, -9999.000
 57420, -9999.000, -9999.000, -9999.000, -9999.000, -9999.000
 57480,  9.014, 27.532, 38.501,  8.621,  1.511
 57540,  8.743, 22.202, 42.565,  8.151,  1.331
 57600,  8.506, 21.768, 39.953,  7.897,  1.229
 57660,  8.358, 20.625, 39.165,  7.678,  1.097
 57720,  8.155, 20.078, 38.172,  7.609,  1.045
 57780,  8.200, 20.051, 36.291,  7.384,  1.060
 57840,  8.603, 20.772, 35.374,  7.815,  1.066
 57900,  8.892, 23.065, 36.190,  7.715,  1.049
 57960,  8.883, 21.633, 34.384,  7.806,  1.096
 58020,  8.770, 21.260, 35.570,  7.667,  1.000
 58080,  9.338, 23.460, 34.901,  7.825,  1.047
 58140,  9.679, 24.941, 34.615,  8.332,  1.003
 58200,  9.945, 26.708, 34.902,  7.943,  1.062
 58260, 10.200, 26.805, 35.211,  7.971,  1.040
 58320, 10.276, 27.880, 34.945,  8.312,  1.076
 58380, 10.517, 27.433, 35.134,  8.293,  1.013
 58440, 10.717, 27.226, 35.435,  8.471,  1.090
 58500, 10.788, 28.505, 36.298,  8.404,  1.076
 58560, 10.796, 28.151, 37.274,  8.306,  1.120
 58620, 10.694, 27.641, 36.011,  8.441,  1.130
 58680, 10.926, 28.384, 36.236,  8.321,  1.119
 58740, 11.443, 28.975, 34.912,  8.316,  1.086
 58800, 11.641, 28.658, 37.044,  8.552,  1.024
 58860, 11.937, 29.883, 35.756,  8.564,  1.058
 58920, 12.427, 30.586, 36.114,  8.671,  1.092
 58980, 12.334, 30.905, 37.153,  8.581,  1.059
 59040, 12.031, 28.979, 39.026,  8.708,  1.127
 59100, 12.215, 28.133, 36.260,  8.498,  1.094
 59160, 12.736, 28.938, 35.211,  8.747,  1.000
 59220, 13.042, 31.005, 37.152,  8.780,  1.051
 59280, 13.264, 31.552, 38.587,  8.886,  1.053
 59340, -9999.000, -9999.000, -9999.000, -9999.000, -9999.000
 59400, 12.565, 28.210, 30.433,  8.165,  0.786
 59460, 12.752, 28.265, 32.479,  8.436,  0.915
 59520, 13.247, 29.422, 34.976,  8.918,  1.002
 59580, 12.984, 28.391, 36.501,  8.705,  0.996
 59640, 13.244, 28.332, 34.829,  8.705,  0.806
 59700, 13.011, 27.719, 36.559,  8.747,  0.892
 59760, 12.989, 26.837, 36.003,  8.662,  0.851
 59820, 13.074, 27.872, 35.792,  8.883,  1.024
 59880, 13.180, 28.140, 37.880,  9.067,  0.911
 59940, 13.339, 28.430, 37.797,  8.793,  0.933
 60000, 13.471, 29.651, 37.233,  9.120,  0.970
 60060, 13.434, 30.105, 38.910,  8.994,  0.948
 60120, 13.559, 28.909, 36.540,  8.923,  0.916
 60180, 13.754, 29.012, 38.435,  9.139,  0.883
 60240, 13.810, 29.100, 37.373,  9.046,  0.983
 60300, 13.852, 29.115, 37.731,  9.112,  0.970
 60360, 14.116, 28.856, 37.208,  9.089,  0.961
 60420, 14.372, 28.895, 37.990,  9.211,  0.945
 60480, 14.298, 28.162, 36.188,  8.903,  0.905
 60540, 14.486, 28.557, 36.897,  9.083,  1.022
 60600, 14.733, 29.122, 38.327,  9.128,  0.895
 60660, 14.925, 28.671, 37.918,  9.151,  0.977
 60720, 15.131, 29.666, 37.273,  9.142,  0.924
 60780, 15.222, 29.284, 38.153,  9.063,  0.936
 60840, 15.122, 28.878, 38.493,  9.162,  0.836
 60900, 15.345, 29.479, 38.389,  8.858,  0.980
 60960, 15.578, 28.772, 37.542,  9.178,  0.962
 61020, 15.655, 29.348, 37.869,  9.357,  0.836
 61080, 15.892, 30.734, 39.772,  9.418,  0.847
 61140, 16.077, 30.565, 40.082,  9.066,  0.830
 61200, -9999.000, -9999.000, -9999.000, -9999.000, -9999.000
 61260, 15.678, 29.411, 37.272,  9.174,  0.833
 61320, 15.733, 28.478, 39.541,  8.980,  0.950
 61380, 15.534, 27.904, 38.871,  9.357,  0.857
 61440, 15.831, 28.329, 39.086,  8.976,  0.868
 61500, 16.448, 30.025, 40.324,  9.165,  0.815
 61560, 16.244, 28.455, 41.301,  9.013,  0.847
 61620, 16.444, 28.568, 40.905,  9.318,  0.801
 61680, 16.685, 29.880, 40.262,  9.359,  0.893
 61740, 17.293, 30.915, 39.704,  9.301,  0.956
 61800, 16.981, 30.889, 39.769,  9.231,  0.828
 61860, 15.840, 30.272, 38.173,  9.014,  0.858
 61920, 15.533, 28.843, 37.559,  8.879,  0.925
 61980, 15.050, 27.597, 37.141,  8.657,  0.890
 62040, 14.826, 26.992, 36.418,  8.699,  0.861
 62100, 15.102, 27.245, 36.825,  8.402,  0.817
 62160, 15.480, 28.245, 36.449,  8.584,  0.917
 62220, 15.181, 27.232, 37.102,  8.447,  0.769
 62280, 15.258, 26.912, 36.288,  8.313,  0.760
 62340, 14.726, 26.216, 35.605,  8.382,  0.883
 62400, 14.741, 26.241, 35.464,  8.347,  0.849
 62460, 15.741, 27.609, 35.456,  8.586,  0.795
 62520, 16.195, 27.840, 38.431,  9.065,  0.743
 62580, 16.570, 28.991, 38.600,  9.044,  0.846
 62640, 16.630, 29.800, 39.501,  9.272,  0.854
 62700, 17.711, 31.253, 39.109,  9.360,  0.909
 62760, 18.337, 30.979, 38.966,  9.325,  0.851
 62820, 18.957, 31.868, 41.779,  9.490,  0.826
 62880, 18.542, 31.545, 42.146,  9.360,  0.907
 62940, 18.794, 32.756, 44.027,  9.458,  0.960
 63000, 18.915, 31.820, 44.669,  9.478,  0.823
 63060, -9999.000, -9999.000, -9999.000, -9999.000, -9999.000
 63120, 17.442, 30.270, 38.824,  8.755,  0.749
 63180, 17.876, 30.263, 43.463,  8.992,  0.867
 63240, 18.040, 31.097, 44.609,  8.812,  0.844
 63300, 18.546, 31.534, 45.927,  9.077,  0.907
 63360, 18.874, 32.089, 47.076,  9.289,  0.841
 63420, 18.587, 31.415, 47.098,  9.501,  0.842
 63480, 19.411, 32.955, 47.347,  9.305,  0.929
 63540, 19.282, 32.391, 49.795,  9.713,  0.926
 63600, 19.188, 32.866, 49.154,  9.593,  0.940
 63660, 17.424, 31.216, 50.422,  8.946,  0.799
 63720, 17.131, 31.018, 49.430,  8.695,  0.772
 63780, 17.616, 31.060, 50.438,  8.784,  0.768
 63840, 17.613, 31.214, 51.616,  9.006,  0.764
 63900, 18.430, 30.526, 51.374,  9.258,  0.794
 63960, 18.581, 32.226, 53.132,  9.097,  0.874
 64020, 18.074, 32.420, 53.965,  9.270,  0.826
 64080, 17.694, 30.945, 52.671,  8.947,  0.869
 64140, 17.866, 32.246, 52.035,  9.021,  0.835
 64200, 18.624, 31.760, 52.338,  9.488,  0.806
 64260, 18.977, 32.636, 51.528,  9.693,  0.848
 64320, 19.841, 33.966, 54.034,  9.859,  0.914
 64380, 19.999, 34.232, 55.961,  9.867,  0.969
 64440, 20.312, 33.670, 54.734, 10.272,  0.945
 64500, 16.401, 29.170, 54.840,  9.061,  0.836
 64560, 17.909, 31.451, 55.327,  9.225,  0.807
 64620, 19.807, 34.320, 56.973,  9.821,  0.846
 64680, 15.772, 30.452, 56.805,  8.739,  0.784
 64740, 15.918, 30.177, 57.049,  8.573,  0.815
 64800,  7.934, 21.561, 58.614,  5.973,  0.642
 64860,  6.946, 20.830, 57.311,  5.330,  0.376
 64920,  5.589, 19.317, 55.941,  4.555,  0.458
 64980,  5.263, 19.046, 55.586,  4.770,  0.403
 65040,  5.268, 19.439, 58.652,  4.395,  0.367
 65100,  5.388, 19.816, 59.008,  4.418,  0.377
 65160,  5.429, 19.790, 58.700,  4.410,  0.402
 65220,  5.245, 19.211, 58.676,  4.618,  0.379
 65280,  5.143, 18.474, 56.600,  4.249,  0.367
 65340,  4.063, 13.226, 48.951,  3.838,  0.275
 65400,  3.676, 11.287, 43.964,  3.691,  0.299
 65460,  3.657, 11.089, 39.935,  3.780,  0.302
 65520,  3.391,  9.608, 35.963,  3.551,  0.258
 65580,  3.115,  8.041, 31.772,  3.456,  0.167
 65640,  2.818,  6.333, 30.186,  3.480,  0.134
 65700,  2.936,  7.255, 32.948,  3.454,  0.127
 65760,  3.295,  9.370, 35.543,  3.727,  0.204
 65820,  3.447, 11.114, 39.191,  3.822,  0.159
 65880,  3.642, 12.365, 45.753,  3.749,  0.219
 65940,  3.716, 12.843, 48.107,  3.808,  0.151
 66000,  3.984, 14.468, 50.675,  3.999,  0.211
 66060,  3.856, 13.874, 49.908,  3.902,  0.228
 66120,  3.643, 12.180, 52.812,  3.961,  0.193
 66180,  4.045, 12.954, 51.561,  3.911,  0.134
 66240,  4.170, 13.417, 52.756,  4.066,  0.162
 66300,  3.916, 13.227, 52.795,  4.033,  0.171
 66360,  3.837, 12.682, 51.668,  3.885,  0.214
 66420,  3.982, 13.478, 50.801,  3.950,  0.157
 66480,  4.503, 14.830, 50.260,  4.192,  0.190
 66540,  4.860, 14.921, 50.770,  4.352,  0.219
 66600,  5.222, 15.230, 46.894,  4.473,  0.263
 66660,  5.313, 15.710, 48.937,  4.378,  0.199
 66720,  5.473, 16.908, 45.903,  5.064,  0.189
 66780,  4.777, 12.877, 41.189,  4.881,  0.063
 66840,  4.396, 11.883, 41.860,  4.441,  0.123
 66900,  4.220, 11.721, 43.858,  4.306,  0.157
 66960,  4.196, 11.882, 44.335,  4.310,  0.137
 67020,  4.182, 12.290, 46.655,  4.164,  0.142
 67080,  4.152, 12.501, 49.445,  4.171,  0.209
 67140,  4.107, 12.606, 50.903,  4.057,  0.255
 67200,  4.272, 13.339, 52.037,  4.280,  0.231
 67260,  4.285, 14.726, 52.923,  4.391,  0.205
 67320,  4.438, 15.900, 54.265,  4.388,  0.255
 67380,  4.551, 15.934, 54.621,  4.475,  0.263
 67440,  4.838, 15.447, 52.927,  4.415,  0.228
 67500,  5.173, 14.949, 53.625,  4.545,  0.198
 67560,  5.185, 13.412, 52.789,  4.557,  0.174
 67620,  5.125, 14.915, 56.252,  4.623,  0.196
 67680,  5.049, 16.407, 57.290,  4.573,  0.239
 67740,  5.046, 16.794, 58.399,  4.671,  0.351
 67800,  4.797, 13.409, 56.719,  4.373,  0.204
 67860,  4.532, 12.125, 56.578,  4.228,  0.184
 67920,  4.640, 12.940, 56.452,  4.309,  0.171
 67980,  4.635, 12.859, 57.337,  4.286,  0.220
 68040,  4.661, 12.971, 57.410,  4.219,  0.194
 68100,  4.682, 13.069, 57.615,  4.369,  0.266
 68160,  4.725, 12.755, 56.972,  4.324,  0.142
 68220,  4.849, 12.908, 56.222,  4.553,  0.214
 68280,  4.813, 13.961, 56.245,  4.338,  0.226
 68340,  4.886, 14.989, 56.781,  4.435,  0.223
 68400,  4.895, 16.637, 58.937,  4.487,  0.296
 68460,  4.825, 16.120, 61.210,  4.418,  0.383
 68520,  4.807, 16.054, 62.235,  4.205,  0.257
 68580,  4.905, 16.728, 59.530,  3.708,  0.149
 68640,  5.075, 15.877, 58.067,  4.474,  0.332
 68700,  5.422, 16.002, 55.485,  4.594,  0.259
 68760,  5.905, 16.539, 55.616,  4.800,  0.308
 68820,  6.117, 16.434, 56.162,  4.643,  0.320
 68880,  6.167, 16.306, 58.291,  4.741,  0.307
 68940,  6.285, 16.380, 57.036,  4.797,  0.318
 69000,  6.278, 15.990, 57.422,  4.837,  0.318
 69060,  6.330, 15.899, 58.273,  4.892,  0.306
 69120,  6.582, 17.120, 58.000,  5.008,  0.315
 69180,  6.530, 17.186, 59.142,  5.000,  0.316
 69240,  6.353, 16.070, 60.347,  4.802,  0.295
 69300,  6.305, 15.713, 60.305,  4.978,  0.310
 69360,  6.365, 15.196, 59.274,  4.929,  0.301
 69420,  6.469, 16.101, 59.502,  5.124,  0.380
 69480,  6.172, 16.992, 61.578,  5.096,  0.403
 69540,  6.223, 18.685, 62.433,  4.925,  0.349
 69600,  6.410, 20.457, 62.685,  5.089,  0.507
 69660,  6.283, 18.816, 63.481,  4.801,  0.352
 69720,  6.182, 18.859, 63.995,  5.167,  0.382
 69780,  6.263, 18.437, 61.346,  4.866,  0.365
 69840,  5.991, 18.767, 61.986,  4.816,  0.339
 69900,  5.826, 17.939, 60.774,  4.645,  0.387
 69960,  5.263, 16.188, 57.464,  4.728,  0.380
 70020,  5.359, 17.140, 56.375,  4.648,  0.325
 70080,  5.417, 17.311, 57.054,  4.686,  0.379
 70140,  5.459, 16.381, 54.778,  4.827,  0.351
 70200,  5.058, 14.061, 51.255,  4.374,  0.414
 70260,  5.117, 15.077, 50.924,  4.356,  0.292
 70320,  5.008, 14.361, 50.866,  4.475,  0.382
 70380,  4.850, 14.060, 49.623,  4.597,  0.447
 70440, -9999.000, -9999.000, -9999.000, -9999.000, -9999.000
 70500,  4.115, 12.610, 38.832,  4.184,  0.293
 70560,  4.333, 12.925, 43.602,  4.140,  0.345
 70620,  4.309, 14.537, 44.307,  4.225,  0.373
 70680,  4.158, 12.289, 41.185,  3.934,  0.337
 70740,  4.110, 11.993, 40.217,  3.775,  0.304
 70800,  4.086, 12.356, 40.906,  3.641,  0.295
 70860,  4.109, 12.145, 40.849,  3.752,  0.262
 70920,  4.154, 13.108, 44.029,  3.855,  0.322
 70980,  4.166, 13.054, 46.032,  3.765,  0.315
 71040,  4.129, 13.301, 47.247,  3.912,  0.294
 71100,  4.211, 13.914, 49.497,  3.725,  0.360
 71160,  4.103, 13.643, 49.010,  3.895,  0.368
 71220,  4.131, 13.543, 48.258,  3.969,  0.339
 71280,  4.247, 13.326, 48.362,  4.035,  0.256
 71340,  4.344, 13.919, 49.038,  4.059,  0.365
 71400,  4.416, 13.669, 49.907,  3.956,  0.331
 71460,  4.450, 13.661, 50.878,  4.170,  0.327
 71520,  4.417, 13.652, 50.705,  3.991,  0.184
 71580,  4.449, 13.890, 52.482,  4.109,  0.339
 71640,  4.563, 13.932, 52.490,  4.108,  0.262
 71700,  4.504, 13.770, 52.850,  4.247,  0.274
 71760,  4.383, 13.464, 53.234,  4.115,  0.263
 71820,  4.362, 14.129, 55.523,  4.016,  0.312
 71880,  4.417, 13.936, 54.796,  4.100,  0.337
 71940,  4.275, 13.924, 55.420,  4.069,  0.293
 72000,  4.393, 14.251, 57.408,  4.038,  0.329
 72060,  4.587, 15.262, 58.151,  4.522,  0.320
 72120,  5.006, 10.808, 51.800,  4.812,  0.243
 72180,  4.778,  9.082, 46.306,  4.277,  0.245
 72240,  5.436,  8.262, 38.780,  4.013,  0.137
 72300,  5.016,  6.952, 34.551,  3.289,  0.060
 72360,  5.497,  7.282, 35.033,  3.788,  0.127
 72420,  5.188,  7.586, 35.217,  3.531,  0.102
 72480,  4.736,  7.521, 32.732,  3.207,  0.123
 72540,  4.791,  8.675, 37.757,  3.603,  0.186
 72600,  4.824,  8.115, 37.243,  3.490,  0.160
 72660,  5.333,  9.014, 41.981,  3.950,  0.195
 72720,  6.531, 10.176, 46.480,  4.404,  0.193
 72780,  8.012, 12.137, 62.113,  5.658,  0.274
 72840,  8.898, 13.438, 69.407,  6.558,  0.304
 72900,  8.087, 13.366, 72.029,  6.827,  0.351
 72960,  8.613, 13.843, 74.353,  7.374,  0.448
 73020,  9.621, 15.446, 82.302,  8.622,  0.494
 73080, 10.790, 17.019, 89.068, 10.439,  0.656
 73140, 10.081, 17.232, 85.006, 10.134,  0.707
 73200,  8.372, 15.662, 71.957,  8.506,  0.561
 73260,  7.390, 15.398, 65.896,  7.435,  0.568
 73320,  6.823, 14.634, 57.533,  6.635,  0.585
 73380,  6.497, 13.645, 49.954,  6.027,  0.562
 73440,  6.235, 13.657, 45.886,  5.618,  0.572
 73500,  6.357, 13.613, 43.649,  5.531,  0.490
 73560,  7.158, 15.940, 52.004,  6.282,  0.566
 73620,  7.148, 16.460, 53.838,  6.556,  0.639
 73680,  7.758, 17.729, 57.060,  7.028,  0.818
 73740,  7.152, 16.474, 54.438,  6.388,  0.669
 73800,  7.153, 16.421, 54.686,  6.184,  0.669
 73860,  6.887, 15.749, 52.164,  6.077,  0.676
 73920,  7.053, 15.871, 55.229,  6.193,  0.718
 73980,  7.269, 16.426, 58.306,  6.656,  0.840
 74040,  7.360, 17.327, 59.803,  6.857,  0.847
 74100,  7.040, 16.152, 56.650,  6.558,  0.802
 74160, -9999.000, -9999.000, -9999.000, -9999.000, -9999.000
 74220,  6.720, 15.166, 54.903,  6.558,  0.847
 74280,  6.348, 14.119, 52.518,  5.848,  0.799
 74340,  6.446, 14.349, 52.535,  5.806,  0.711
 74400,  6.625, 15.458, 53.511,  6.027,  0.759
 74460,  6.392, 15.283, 52.934,  5.821,  0.683
 74520,  7.011, 18.110, 58.207,  6.284,  0.821
 74580,  6.696, 18.650, 57.603,  6.106,  0.865
 74640,  5.952, 16.218, 49.714,  5.243,  0.666
 74700,  5.515, 14.822, 43.149,  4.821,  0.612
 74760,  5.773, 16.047, 45.960,  4.977,  0.564
 74820,  5.892, 17.549, 44.864,  4.793,  0.551
 74880,  6.175, 19.748, 50.625,  5.178,  0.623
 74940,  5.975, 20.298, 49.866,  4.969,  0.578
 75000,  6.249, 23.661, 54.087,  5.224,  0.665
 75060,  6.712, 25.744, 59.278,  5.631,  0.675
 75120,  6.772, 24.009, 58.314,  5.687,  0.713
 75180,  6.694, 22.213, 54.970,  5.618,  0.617
 75240,  6.791, 21.521, 55.294,  5.905,  0.544
 75300,  6.892, 22.551, 57.604,  5.941,  0.562
 75360,  6.924, 22.514, 58.010,  6.206,  0.547
 75420,  6.748, 22.254, 55.713,  5.973,  0.573
 75480,  6.787, 21.494, 55.536,  6.350,  0.538
 75540,  6.764, 23.837, 56.562,  6.165,  0.531
 75600,  6.848, 23.757, 58.615,  6.535,  0.560
 75660,  6.842, 24.029, 57.153,  6.084,  0.578
 75720,  6.776, 24.082, 58.891,  6.190,  0.585
 75780,  6.926, 25.907, 60.043,  6.168,  0.573
 75840,  6.939, 28.188, 63.125,  6.347,  0.627
 75900,  6.916, 29.353, 62.776,  6.071,  0.583
 75960,  7.170, 31.758, 67.437,  6.389,  0.621
 76020,  7.503, 35.438, 66.528,  6.857,  0.721
 76080,  7.721, 36.545, 69.601,  6.733,  0.802
 76140,  7.553, 38.651, 71.550,  6.528,  0.686
 76200,  7.399, 38.945, 71.373,  5.847,  0.544
 76260,  7.144, 37.146, 70.306,  5.256,  0.531
 76320,  7.082, 37.815, 70.819,  5.382,  0.456
 76380,  7.163, 38.146, 71.407,  4.976,  0.397
 76440,  6.733, 35.061, 69.471,  4.960,  0.416
 76500,  6.242, 30.908, 67.154,  4.472,  0.388
 76560,  6.048, 28.945, 63.676,  4.243,  0.315
 76620,  6.010, 28.829, 64.867,  4.250,  0.268
 76680,  5.628, 25.566, 62.683,  4.111,  0.253
 76740,  5.441, 25.460, 64.393,  3.793,  0.209
 76800,  5.437, 26.270, 65.936,  3.804,  0.245
 76860,  5.251, 25.587, 64.922,  3.803,  0.234
 76920,  5.164, 24.318, 64.042,  3.725,  0.258
 76980,  4.996, 22.646, 60.766,  3.600,  0.227
 77040,  5.102, 23.168, 63.239,  3.661,  0.245
 77100,  5.087, 23.452, 61.958,  3.605,  0.189
 77160,  5.052, 22.600, 60.819,  3.643,  0.198
 77220,  5.036, 24.216, 64.230,  3.486,  0.204
 77280,  5.083, 26.860, 68.255,  3.634,  0.222
 77340,  5.049, 26.253, 66.562,  3.527,  0.210
 77400,  5.111, 28.536, 71.443,  3.728,  0.187
 77460,  5.245, 29.758, 72.682,  3.712,  0.258
 77520,  5.257, 32.062, 74.997,  3.686,  0.325
 77580,  5.454, 34.730, 80.108,  3.868,  0.288
 77640,  5.356, 35.218, 81.599,  3.982,  0.359
 77700,  5.368, 34.776, 79.300,  3.813,  0.276
 77760,  5.529, 35.697, 79.733,  4.035,  0.272
 77820, -9999.000, -9999.000, -9999.000, -9999.000, -9999.000
 77880,  5.142, 33.858, 68.787,  3.978,  0.330
 77940,  5.263, 35.102, 70.711,  3.933,  0.280
 78000,  5.318, 36.060, 73.677,  3.782,  0.327
 78060,  5.271, 33.641, 72.129,  3.670,  0.328
 78120,  5.200, 33.817, 71.262,  3.731,  0.308
 78180,  5.314, 33.715, 71.077,  3.876,  0.327
 78240,  5.236, 34.505, 70.523,  3.731,  0.336
 78300,  5.371, 37.322, 77.299,  3.739,  0.279
 78360,  5.360, 37.661, 78.073,  3.759,  0.269
 78420,  5.438, 40.044, 77.549,  3.810,  0.314
 78480,  5.548, 40.982, 81.899,  3.860,  0.389
 78540,  5.547, 40.500, 81.064,  3.867,  0.397
 78600,  5.454, 40.162, 79.244,  3.771,  0.424
 78660,  5.441, 40.973, 83.719,  3.681,  0.334
 78720,  5.504, 39.224, 84.617,  3.810,  0.306
 78780,  5.401, 37.470, 83.359,  3.833,  0.295
 78840,  5.529, 39.542, 91.097,  3.890,  0.378
 78900,  5.560, 40.255, 93.179,  3.772,  0.396
 78960,  5.183, 31.442, 82.602,  3.989,  0.386
 79020,  5.319, 28.838, 81.126,  4.026,  0.306
 79080,  5.016, 24.584, 76.846,  4.026,  0.285
 79140,  5.440, 30.566, 90.539,  4.278,  0.325
 79200,  5.904, 32.901, 95.924,  4.527,  0.332
 79260,  6.524, 38.894, 108.958,  4.612,  0.418
 79320,  6.790, 44.255, 123.582,  4.783,  0.416
 79380,  6.619, 41.442, 119.383,  4.719,  0.373
 79440,  6.955, 41.657, 128.065,  5.091,  0.505
 79500,  6.899, 44.889, 131.291,  4.910,  0.468
 79560,  6.252, 34.806, 116.759,  4.574,  0.411
 79620,  6.515, 39.108, 120.477,  4.716,  0.443
 79680, -9999.000, -9999.000, -9999.000, -9999.000, -9999.000
 79740,  6.770, 40.548, 116.924,  5.130,  0.425
 79800,  6.924, 39.491, 120.591,  5.029,  0.459
 79860,  6.867, 39.409, 122.827,  4.952,  0.410
 79920,  6.765, 37.902, 120.055,  4.934,  0.436
 79980,  6.857, 38.123, 123.947,  4.741,  0.437
 80040,  6.504, 36.215, 122.246,  4.789,  0.390
 80100,  6.521, 36.752, 125.964,  4.864,  0.428
 80160,  6.393, 36.989, 131.191,  4.785,  0.436
 80220,  6.106, 34.655, 128.361,  4.638,  0.341
 80280,  5.811, 33.179, 126.306,  4.712,  0.456
 80340,  5.902, 33.128, 125.460,  4.654,  0.421
 80400,  5.937, 33.394, 123.320,  4.542,  0.409
 80460,  5.964, 34.995, 126.323,  4.624,  0.469
 80520,  5.891, 33.700, 120.120,  4.490,  0.407
 80580,  5.980, 34.296, 122.490,  4.399,  0.393
 80640,  5.989, 35.436, 119.832,  4.524,  0.413
 80700,  6.036, 34.738, 118.725,  4.584,  0.399
 80760,  5.569, 31.244, 111.982,  4.539,  0.416
 80820,  5.401, 29.642, 107.126,  4.228,  0.440
 80880,  5.461, 28.033, 103.511,  4.605,  0.457
 80940,  5.461, 27.742, 99.536,  4.098,  0.390
 81000,  5.619, 28.913, 100.245,  4.379,  0.343
 81060,  5.577, 28.345, 99.682,  4.404,  0.327
 81120,  5.624, 28.423, 101.439,  4.267,  0.343
 81180,  5.847, 28.811, 103.829,  4.234,  0.363
 81240,  5.970, 30.518, 105.302,  4.451,  0.373
 81300,  6.043, 30.186, 104.302,  4.667,  0.411
 81360,  5.876, 28.597, 101.704,  4.341,  0.412
 81420,  5.884, 28.170, 100.165,  4.455,  0.403
 81480,  6.084, 28.149, 99.485,  4.418,  0.425
 81540, -9999.000, -9999.000, -9999.000, -9999.000, -9999.000
 81600,  5.764, 25.255, 83.226,  4.304,  0.364
 81660,  6.080, 27.918, 92.242,  4.193,  0.413
 81720,  6.491, 30.217, 100.491,  4.407,  0.379
 81780,  6.497, 29.906, 105.742,  4.351,  0.389
 81840,  6.440, 29.405, 109.810,  4.613,  0.355
 81900,  6.596, 30.637, 114.171,  4.702,  0.347
 81960,  6.607, 30.009, 117.238,  4.786,  0.359
 82020,  6.528, 28.546, 112.571,  4.452,  0.294
 82080,  6.464, 28.392, 114.437,  4.563,  0.311
 82140,  6.564, 29.297, 116.946,  4.626,  0.341
 82200,  6.479, 28.136, 117.351,  4.641,  0.368
 82260,  6.386, 28.001, 116.611,  4.622,  0.326
 82320,  6.101, 26.969, 112.495,  4.601,  0.318
 82380,  5.994, 29.201, 115.916,  4.473,  0.350
 82440,  5.728, 29.312, 120.708,  4.475,  0.350
 82500,  5.531, 31.484, 135.577,  4.409,  0.323
 82560,  5.548, 32.192, 137.176,  4.392,  0.413
 82620,  5.491, 33.261, 141.781,  4.391,  0.429
 82680,  5.484, 31.868, 136.480,  4.457,  0.377
 82740,  5.451, 32.532, 140.960,  4.407,  0.347
 82800,  5.339, 32.349, 139.531,  4.344,  0.328
 82860,  5.326, 33.652, 144.692,  4.431,  0.444
 82920,  5.473, 31.927, 138.089,  4.494,  0.375
 82980,  5.684, 30.348, 130.656,  4.362,  0.345
 83040,  5.923, 29.217, 120.543,  4.622,  0.417
 83100,  6.227, 29.338, 117.607,  4.821,  0.410
 83160,  6.282, 29.247, 116.161,  4.617,  0.428
 83220,  6.157, 28.321, 113.159,  4.520,  0.385
 83280,  6.662, 29.185, 108.051,  4.672,  0.440
 83340,  6.958, 29.825, 107.283,  4.749,  0.473
 83400,  6.905, 27.587, 95.472,  4.742,  0.403
 83460,  7.185, 27.152, 97.448,  4.924,  0.412
 83520,  7.310, 25.538, 99.929,  5.239,  0.476
 83580,  7.570, 23.335, 95.795,  5.200,  0.373
 83640,  7.919, 22.696, 89.427,  5.524,  0.473
 83700,  8.485, 22.000, 86.203,  5.954,  0.469
 83760,  8.728, 21.459, 82.413,  6.009,  0.416
 83820,  8.848, 20.757, 80.601,  6.358,  0.503
 83880,  9.044, 20.153, 76.706,  6.460,  0.514
 83940,  9.396, 19.940, 73.246,  6.707,  0.552
 84000,  9.373, 19.570, 69.659,  7.028,  0.537
 84060,  9.294, 18.436, 70.053,  6.978,  0.546
 84120,  8.778, 17.790, 69.051,  6.789,  0.485
 84180,  8.674, 18.571, 70.306,  6.800,  0.410
 84240,  8.580, 18.025, 71.010,  6.873,  0.485
 84300,  8.622, 17.689, 68.581,  6.830,  0.452
 84360,  8.227, 17.108, 66.035,  6.739,  0.473
 84420,  7.585, 16.532, 61.422,  6.201,  0.444
 84480,  7.404, 15.912, 58.227,  6.079,  0.412
 84540,  7.257, 15.957, 54.801,  5.794,  0.459
 84600,  6.142, 14.679, 49.959,  5.609,  0.397
 84660,  5.151, 12.842, 41.988,  4.848,  0.356
 84720,  5.080, 13.729, 42.250,  4.780,  0.388
 84780,  6.238, 16.588, 43.403,  5.226,  0.498
 84840,  5.974, 16.008, 43.752,  5.237,  0.426
 84900,  5.401, 15.775, 40.740,  5.184,  0.388
 84960,  4.550, 15.086, 38.286,  4.425,  0.339
 85020,  3.438, 10.918, 33.596,  3.965,  0.234
 85080,  3.134,  9.682, 31.705,  3.402,  0.185
 85140,  3.064, 10.289, 30.885,  3.355,  0.136
 85200, -9999.000, -9999.000, -9999.000, -9999.000, -9999.000
 85260,  2.851, 10.464, 25.861,  3.515,  0.208
 85320,  2.799, 10.387, 26.252,  3.552,  0.216
 85380,  2.788, 11.301, 27.375,  3.430,  0.256
 85440,  2.823, 11.424, 25.825,  3.281,  0.196
 85500,  2.833, 11.304, 26.991,  3.374,  0.319
 85560,  2.911, 11.234, 26.183,  3.399,  0.250
 85620,  2.907, 11.342, 26.531,  3.367,  0.273
 85680,  2.943, 11.532, 26.791,  3.256,  0.273
 85740,  3.049, 11.988, 26.477,  3.470,  0.281
 85800,  3.026, 12.797, 27.103,  3.436,  0.337
 85860,  3.069, 12.288, 27.119,  3.389,  0.293
 85920,  3.101, 13.079, 26.278,  3.289,  0.307
 85980,  3.132, 13.061, 27.512,  3.477,  0.289
 86040,  3.052, 13.025, 27.194,  3.135,  0.258
 86100,  2.740, 10.453, 24.359,  2.990,  0.218
 86160,  2.840, 11.729, 24.303,  2.976,  0.248
 86220,  3.026, 12.708, 24.807,  3.026,  0.340
 86280,  2.787, 12.144, 28.830,  3.126,  0.276
 86340,  2.746, 12.636, 30.537,  3.094,  0.291
