37, 1001
Michael A Robinson, Chris Jernigan, Subi Thakali
NOAA ESRL Chemical Sciences Laboratory and CIRES, U. of Colorado
NOAA Iodide CIMS Instrument
USOS
1, 1
2024, 08, 12, 2024, 08, 13
1
starttime_UTC, seconds_past_midnight, seconds_of_day_since_00:00:00_UTC
5
1, 1, 1, 1, 1
-9999, -9999, -9999, -9999, -9999
C4H7NO5_NOAACIMS, pptv, Gas_C4H7NO5_InSitu_S_AVMR, 
ISOPN_NOAACIMS, pptv, Gas_ISOPN_InSitu_S_AVMR, 
C5H10O3_NOAACIMS, pptv, Gas_C5H10O3_InSitu_S_AVMR, 
C5H9NO5_NOAACIMS, pptv, Gas_C5H9NO5_InSitu_S_AVMR, 
C10H17NO4_NOAACIMS, pptv, Gas_C10H17NO4_InSitu_S_AVMR, 
0
18
PI_CONTACT_INFO: 325 Broadway, R/CSD 7, Boulder, Colorado 80305; michael.a.robinson@noaa.gov; chris.jernigan@noaa.gov;
PLATFORM: NOAA CSL Mobile Lab
LOCATION: SLC, Utah
ASSOCIATED_DATA: 1Hz data also available on request.
INSTRUMENT_INFO: NOAA I- ToF CIMS
DATA_INFO: All data in parts per trillion by volume (pptv). 1 Hz data is available upon request.
UNCERTAINTY: TBD
ULOD_FLAG: -7777
ULOD_VALUE: N/A
LLOD_FLAG: -8888
LLOD_VALUE: N/A
DM_CONTACT_INFO: Nathan Howard; nathan.h.howard@noaa.gov
PROJECT_INFO: USOS, summer 2024. https://csl.noaa.gov/groups/csl7/measurements/2024usos/
STIPULATIONS_ON_USE: Users are strongly encouraged to contact the PI for proper data usage.
OTHER_COMMENTS: 
REVISION: RA
RA: Preliminary Data; For in-field use only
starttime_UTC, C4H7NO5_NOAACIMS, ISOPN_NOAACIMS, C5H10O3_NOAACIMS, C5H9NO5_NOAACIMS, C10H17NO4_NOAACIMS
     0, -9999.000, -9999.000, -9999.000, -9999.000, -9999.000
    60, -9999.000, -9999.000, -9999.000, -9999.000, -9999.000
   120, -9999.000, -9999.000, -9999.000, -9999.000, -9999.000
   180, -9999.000, -9999.000, -9999.000, -9999.000, -9999.000
   240,  6.437,  7.062, 37.226,  4.647,  0.230
   300,  6.269,  7.197, 39.117,  4.635,  0.204
   360,  6.247,  6.924, 38.947,  4.997,  0.220
   420,  6.342,  6.987, 39.444,  4.896,  0.230
   480,  6.168,  6.266, 38.986,  4.835,  0.237
   540,  6.219,  5.453, 36.665,  4.352,  0.122
   600, -9999.000, -9999.000, -9999.000, -9999.000, -9999.000
   660,  6.148,  6.605, 33.989,  4.793,  0.243
   720,  6.267,  7.973, 37.564,  4.708,  0.194
   780,  6.316,  7.446, 38.961,  4.905,  0.216
   840,  6.342,  7.721, 37.951,  4.750,  0.244
   900,  6.513,  8.709, 40.689,  4.821,  0.284
   960,  6.445,  9.620, 42.305,  4.647,  0.199
  1020,  6.489,  8.664, 41.615,  4.631,  0.266
  1080,  6.415,  8.288, 43.565,  4.815,  0.193
  1140,  6.468,  8.383, 40.468,  4.519,  0.218
  1200,  6.428,  8.116, 42.537,  4.613,  0.275
  1260,  6.421,  8.053, 42.164,  4.439,  0.265
  1320,  6.412,  8.523, 41.715,  4.585,  0.164
  1380,  6.524,  8.336, 42.246,  4.550,  0.219
  1440,  6.293,  8.324, 42.470,  4.622,  0.212
  1500,  6.435,  7.916, 42.664,  4.388,  0.190
  1560,  6.321,  8.816, 44.738,  4.441,  0.217
  1620,  6.471,  8.984, 42.029,  4.496,  0.203
  1680,  6.512,  8.691, 42.686,  4.395,  0.247
  1740,  6.373,  8.609, 43.634,  4.631,  0.174
  1800,  6.536,  8.766, 44.449,  4.611,  0.215
  1860,  6.562,  8.610, 44.910,  4.431,  0.217
  1920,  6.481,  8.608, 46.628,  4.266,  0.181
  1980,  6.417,  9.270, 45.973,  4.197,  0.174
  2040,  6.535,  8.684, 45.962,  4.380,  0.119
  2100,  6.425,  8.380, 45.831,  4.391,  0.116
  2160,  6.499,  8.580, 46.900,  4.314,  0.198
  2220,  6.566,  8.984, 45.330,  4.149,  0.132
  2280,  6.629,  9.056, 48.502,  4.467,  0.213
  2340,  6.538,  8.652, 45.965,  4.441,  0.165
  2400,  6.517,  9.453, 47.714,  4.103,  0.232
  2460,  6.510,  8.912, 39.604,  4.621,  0.279
  2520,  6.706,  8.654, 42.665,  4.314,  0.184
  2580,  6.759,  8.746, 43.019,  4.316,  0.140
  2640,  6.716,  8.903, 44.909,  4.571,  0.215
  2700,  6.599,  9.632, 45.371,  4.435,  0.217
  2760,  6.584,  9.530, 45.919,  4.317,  0.213
  2820,  6.713,  9.467, 46.073,  4.472,  0.210
  2880,  6.834,  9.382, 44.585,  4.516,  0.172
  2940,  6.899,  8.650, 44.154,  4.613,  0.142
  3000,  7.064,  8.800, 43.443,  4.739,  0.188
  3060,  7.056,  9.156, 42.621,  4.856,  0.174
  3120,  7.069,  9.256, 45.849,  4.738,  0.238
  3180,  7.012,  9.638, 48.260,  4.858,  0.210
  3240,  7.018,  9.353, 47.326,  4.726,  0.247
  3300,  6.960,  9.598, 47.069,  4.802,  0.184
  3360,  6.883,  9.785, 50.628,  4.872,  0.260
  3420,  6.955,  9.754, 49.898,  4.790,  0.247
  3480,  6.824,  9.653, 49.295,  4.524,  0.276
  3540,  6.780, 10.162, 50.061,  4.885,  0.247
  3600,  6.778,  9.957, 49.384,  4.771,  0.275
  3660,  6.599,  8.808, 48.412,  4.412,  0.205
  3720,  6.411,  8.622, 45.639,  4.465,  0.181
  3780,  6.499,  8.303, 43.811,  4.404,  0.159
  3840,  6.402,  8.466, 43.562,  4.399,  0.161
  3900,  6.428,  8.573, 42.972,  4.281,  0.183
  3960,  6.331,  8.272, 43.190,  4.340,  0.168
  4020,  6.442,  8.301, 43.354,  4.268,  0.201
  4080,  6.400,  8.475, 43.407,  4.307,  0.223
  4140,  6.492,  8.771, 43.413,  4.370,  0.132
  4200,  6.636,  9.266, 46.654,  4.436,  0.178
  4260, -9999.000, -9999.000, -9999.000, -9999.000, -9999.000
  4320,  6.398,  9.462, 41.027,  4.214,  0.267
  4380,  6.619,  9.538, 42.861,  4.469,  0.175
  4440,  6.650,  9.797, 46.445,  4.571,  0.220
  4500,  6.872,  9.969, 47.299,  4.403,  0.171
  4560,  6.706, 10.174, 48.970,  4.610,  0.115
  4620,  6.664,  9.973, 48.894,  4.495,  0.164
  4680,  6.631, 10.233, 49.446,  4.463,  0.156
  4740,  6.754, 10.167, 50.548,  4.495,  0.162
  4800,  6.741, 10.189, 50.920,  4.439,  0.198
  4860,  6.807, 10.851, 50.186,  4.426,  0.198
  4920,  6.703,  9.989, 52.014,  4.457,  0.237
  4980,  6.716, 10.368, 51.114,  4.488,  0.205
  5040,  6.781, 10.726, 51.539,  4.652,  0.237
  5100,  6.767, 11.192, 52.926,  4.510,  0.219
  5160,  6.883, 11.065, 53.081,  4.591,  0.201
  5220,  6.789, 10.509, 54.493,  4.642,  0.244
  5280,  6.747, 11.097, 52.659,  4.511,  0.272
  5340,  6.685, 10.680, 53.306,  4.397,  0.237
  5400,  6.587, 10.700, 55.340,  4.660,  0.231
  5460,  6.628, 10.969, 52.789,  4.578,  0.217
  5520,  6.664, 10.463, 53.261,  4.422,  0.194
  5580,  6.478, 10.504, 52.078,  4.271,  0.220
  5640,  6.537, 10.897, 51.968,  4.530,  0.249
  5700,  6.491, 10.158, 52.767,  4.458,  0.179
  5760,  6.675, 10.665, 51.947,  4.431,  0.291
  5820,  6.695, 10.644, 52.546,  4.494,  0.290
  5880,  6.565, 10.846, 52.293,  4.249,  0.188
  5940,  6.703, 10.738, 52.750,  4.386,  0.224
  6000,  6.808, 10.531, 51.988,  4.219,  0.236
  6060,  6.779, 10.934, 54.975,  4.450,  0.260
  6120, -9999.000, -9999.000, -9999.000, -9999.000, -9999.000
  6180,  6.429, 10.610, 49.642,  4.077,  0.264
  6240,  6.425, 10.929, 50.118,  4.314,  0.254
  6300,  6.498, 11.323, 52.454,  4.567,  0.212
  6360,  6.610, 11.327, 54.179,  4.341,  0.294
  6420,  6.543, 11.580, 53.738,  4.232,  0.297
  6480,  6.552, 10.818, 51.487,  4.444,  0.299
  6540,  6.670, 11.139, 51.897,  4.234,  0.260
  6600,  6.729, 10.879, 52.132,  4.540,  0.239
  6660,  6.777, 10.902, 53.657,  4.495,  0.222
  6720,  6.810, 11.260, 54.634,  4.539,  0.206
  6780,  6.780, 11.374, 55.531,  4.420,  0.252
  6840,  6.924, 11.283, 53.633,  4.537,  0.182
  6900,  6.763, 11.415, 55.522,  4.571,  0.210
  6960,  6.595, 10.733, 55.038,  4.410,  0.280
  7020,  6.622, 11.137, 55.585,  4.501,  0.237
  7080,  6.561, 11.176, 54.081,  4.322,  0.239
  7140,  6.365, 11.249, 53.458,  4.308,  0.254
  7200,  6.500, 11.304, 54.282,  4.425,  0.341
  7260,  6.324, 11.291, 53.850,  4.358,  0.282
  7320,  6.447, 11.361, 51.785,  4.435,  0.284
  7380,  6.358, 11.352, 52.746,  4.232,  0.334
  7440,  6.535, 11.581, 52.473,  4.390,  0.268
  7500,  6.542, 11.608, 52.781,  4.293,  0.275
  7560,  6.577, 11.988, 52.709,  4.473,  0.233
  7620,  6.577, 11.802, 54.275,  4.469,  0.313
  7680,  6.539, 11.746, 51.608,  4.557,  0.284
  7740,  6.660, 11.780, 53.506,  4.510,  0.253
  7800,  6.303, 11.111, 54.040,  4.392,  0.252
  7860,  6.508, 11.404, 54.648,  4.307,  0.292
  7920,  6.441, 12.001, 53.505,  4.326,  0.347
  7980, -9999.000, -9999.000, -9999.000, -9999.000, -9999.000
  8040,  6.120, 11.097, 46.325,  4.095,  0.322
  8100,  6.236, 10.891, 47.646,  4.405,  0.341
  8160,  6.228, 11.681, 50.162,  4.314,  0.367
  8220,  6.192, 12.142, 51.417,  4.631,  0.415
  8280,  6.289, 11.157, 50.319,  4.590,  0.459
  8340,  6.217, 11.322, 51.796,  4.529,  0.386
  8400,  6.255, 11.797, 52.936,  4.666,  0.424
  8460,  6.181, 11.831, 53.431,  4.814,  0.444
  8520,  6.262, 11.556, 53.680,  4.806,  0.406
  8580,  6.255, 11.745, 53.658,  4.860,  0.533
  8640,  6.224, 11.765, 54.706,  4.847,  0.526
  8700,  6.243, 11.649, 54.456,  4.934,  0.551
  8760,  6.327, 11.653, 53.777,  5.051,  0.534
  8820,  6.234, 11.732, 54.107,  5.102,  0.636
  8880,  6.171, 11.544, 54.627,  5.014,  0.638
  8940,  6.308, 12.734, 56.412,  5.099,  0.671
  9000,  6.381, 12.738, 54.457,  5.330,  0.697
  9060,  6.217, 12.819, 56.449,  5.262,  0.671
  9120,  6.220, 12.717, 56.782,  5.285,  0.638
  9180,  6.239, 13.317, 58.145,  5.703,  0.769
  9240,  6.284, 14.268, 62.417,  6.250,  0.755
  9300,  6.196, 12.967, 58.772,  5.998,  0.839
  9360,  5.450, 12.570, 57.361,  6.028,  0.663
  9420,  4.152, 11.303, 51.224,  5.510,  0.571
  9480,  3.902, 10.055, 46.190,  5.007,  0.453
  9540,  3.457,  8.581, 43.937,  4.456,  0.488
  9600,  2.844,  6.808, 41.112,  4.088,  0.314
  9660,  2.549,  5.897, 37.846,  3.779,  0.312
  9720,  2.295,  4.374, 35.869,  3.609,  0.308
  9780,  2.096,  3.952, 34.067,  3.416,  0.253
  9840,  1.915,  3.689, 29.403,  3.023,  0.300
  9900,  1.953,  3.216, 29.239,  3.299,  0.206
  9960,  1.924,  3.197, 29.325,  3.090,  0.226
 10020,  1.902,  3.163, 28.711,  3.216,  0.228
 10080,  1.942,  3.278, 28.494,  3.140,  0.153
 10140,  1.960,  3.196, 29.091,  3.113,  0.229
 10200,  1.955,  3.228, 28.125,  3.203,  0.204
 10260,  1.930,  3.096, 28.963,  3.094,  0.224
 10320,  1.893,  3.108, 28.928,  3.022,  0.212
 10380,  1.841,  2.948, 28.765,  3.020,  0.257
 10440,  1.787,  2.705, 26.950,  3.087,  0.239
 10500,  1.784,  2.686, 27.881,  3.107,  0.225
 10560,  1.721,  2.529, 27.646,  2.963,  0.253
 10620,  1.703,  2.249, 27.250,  2.922,  0.226
 10680,  1.588,  2.221, 26.728,  2.861,  0.274
 10740,  1.586,  2.287, 26.244,  2.765,  0.280
 10800,  1.505,  2.049, 25.214,  2.788,  0.227
 10860,  1.562,  1.600, 25.683,  2.743,  0.250
 10920,  1.539,  1.894, 24.558,  2.782,  0.242
 10980,  1.480,  1.705, 23.886,  2.821,  0.257
 11040,  1.495,  1.779, 23.918,  2.785,  0.244
 11100,  1.496,  1.869, 23.913,  2.720,  0.272
 11160,  1.518,  1.853, 23.560,  2.784,  0.220
 11220,  1.481,  2.032, 23.857,  2.913,  0.280
 11280,  1.525,  1.900, 23.707,  2.872,  0.179
 11340,  1.546,  2.077, 24.028,  2.721,  0.263
 11400,  1.509,  2.052, 24.220,  2.769,  0.268
 11460,  1.521,  2.040, 24.410,  2.773,  0.253
 11520,  1.508,  1.928, 23.806,  2.651,  0.253
 11580,  1.526,  2.256, 25.261,  2.859,  0.279
 11640, -9999.000, -9999.000, -9999.000, -9999.000, -9999.000
 11700,  1.437,  1.732, 21.338,  2.508,  0.251
 11760,  1.436,  2.139, 21.552,  2.717,  0.294
 11820,  1.470,  1.939, 22.277,  2.686,  0.318
 11880,  1.480,  1.807, 22.367,  2.702,  0.282
 11940,  1.444,  1.996, 21.346,  2.655,  0.282
 12000,  1.447,  1.793, 23.870,  2.622,  0.331
 12060,  1.495,  1.875, 23.384,  2.766,  0.276
 12120,  1.471,  1.816, 23.015,  2.775,  0.315
 12180,  1.486,  1.701, 23.104,  2.754,  0.363
 12240,  1.432,  1.801, 22.758,  2.824,  0.333
 12300,  1.440,  1.820, 23.356,  2.807,  0.323
 12360,  1.441,  1.697, 22.432,  2.879,  0.327
 12420,  1.456,  2.019, 23.101,  2.851,  0.374
 12480,  1.432,  1.732, 22.183,  2.833,  0.317
 12540,  1.388,  1.547, 22.489,  2.741,  0.229
 12600,  1.399,  1.725, 22.018,  2.612,  0.334
 12660,  1.421,  1.872, 22.371,  2.880,  0.299
 12720,  1.378,  1.759, 22.857,  2.881,  0.311
 12780,  1.423,  1.978, 22.667,  2.888,  0.300
 12840,  1.430,  1.905, 22.614,  2.801,  0.403
 12900,  1.423,  1.616, 22.229,  2.972,  0.303
 12960,  1.413,  1.857, 23.200,  2.783,  0.219
 13020,  1.467,  1.994, 23.933,  2.980,  0.305
 13080,  1.475,  1.897, 23.864,  2.966,  0.315
 13140,  1.473,  2.108, 24.855,  2.940,  0.364
 13200,  1.485,  1.989, 23.818,  3.057,  0.353
 13260,  1.521,  2.327, 24.634,  3.084,  0.424
 13320,  1.509,  2.321, 23.972,  3.043,  0.362
 13380,  1.570,  2.392, 26.194,  3.204,  0.440
 13440,  1.547,  2.764, 26.183,  3.277,  0.419
 13500,  1.695,  2.411, 25.694,  3.381,  0.755
 13560,  1.481,  2.502, 24.557,  3.227,  0.413
 13620,  1.487,  2.511, 24.280,  3.234,  0.418
 13680,  1.490,  2.801, 25.655,  3.124,  0.413
 13740,  1.463,  2.670, 25.337,  3.167,  0.394
 13800,  1.509,  2.616, 25.219,  3.182,  0.392
 13860,  1.463,  2.742, 25.693,  3.177,  0.390
 13920,  1.442,  2.717, 25.058,  3.099,  0.325
 13980,  1.491,  2.951, 25.800,  3.172,  0.320
 14040,  1.517,  2.645, 25.713,  3.224,  0.333
 14100,  1.529,  3.345, 25.790,  3.381,  0.350
 14160,  1.608,  3.555, 27.143,  3.503,  0.367
 14220,  1.634,  3.652, 28.885,  3.572,  0.370
 14280,  1.663,  3.901, 29.036,  3.683,  0.389
 14340,  1.677,  4.035, 29.974,  3.607,  0.331
 14400,  1.748,  4.267, 33.051,  3.938,  0.393
 14460,  1.772,  4.582, 34.122,  3.889,  0.365
 14520,  1.752,  4.274, 33.709,  3.899,  0.400
 14580,  1.770,  4.561, 34.610,  3.981,  0.431
 14640,  1.797,  4.519, 33.861,  4.079,  0.411
 14700,  1.821,  4.451, 34.969,  3.845,  0.422
 14760,  1.802,  4.493, 34.377,  3.991,  0.362
 14820,  1.767,  4.452, 34.135,  3.893,  0.391
 14880,  1.742,  4.039, 32.450,  3.900,  0.398
 14940,  1.706,  4.102, 32.763,  3.840,  0.403
 15000,  1.689,  3.725, 33.457,  3.923,  0.416
 15060,  1.635,  3.618, 31.489,  3.677,  0.381
 15120,  1.575,  3.399, 30.227,  3.802,  0.352
 15180,  1.522,  3.361, 29.230,  3.793,  0.364
 15240,  1.517,  3.215, 28.229,  3.777,  0.364
 15300,  1.510,  2.776, 28.235,  3.712,  0.434
 15360, -9999.000, -9999.000, -9999.000, -9999.000, -9999.000
 15420,  1.391,  2.649, 22.743,  3.495,  0.392
 15480,  1.422,  2.513, 22.491,  3.504,  0.335
 15540,  1.392,  2.510, 23.006,  3.485,  0.328
 15600,  1.390,  2.545, 22.626,  3.394,  0.371
 15660,  1.351,  2.376, 21.673,  3.403,  0.331
 15720,  1.403,  2.722, 23.783,  3.337,  0.367
 15780,  1.335,  2.309, 22.132,  3.288,  0.394
 15840,  1.291,  2.071, 21.260,  3.113,  0.362
 15900,  1.222,  1.942, 20.453,  2.932,  0.324
 15960,  1.226,  2.006, 18.920,  2.913,  0.340
 16020,  1.222,  1.978, 18.640,  2.771,  0.297
 16080,  1.231,  1.946, 18.293,  2.667,  0.345
 16140,  1.194,  1.715, 18.116,  2.745,  0.310
 16200,  1.175,  1.854, 17.271,  2.644,  0.303
 16260,  1.188,  1.622, 16.861,  2.689,  0.355
 16320,  1.194,  1.867, 18.907,  2.868,  0.349
 16380,  1.182,  1.866, 18.203,  2.680,  0.379
 16440,  1.210,  1.738, 17.619,  2.844,  0.389
 16500,  1.213,  1.763, 18.542,  2.864,  0.435
 16560,  1.227,  1.648, 17.808,  2.788,  0.364
 16620,  1.192,  1.701, 18.060,  2.775,  0.419
 16680,  1.204,  2.004, 18.807,  2.977,  0.493
 16740,  1.229,  2.011, 18.271,  3.108,  0.469
 16800,  1.279,  2.235, 20.727,  3.174,  0.567
 16860,  1.288,  2.074, 21.081,  3.208,  0.556
 16920,  1.321,  2.159, 21.585,  3.493,  0.563
 16980,  1.351,  2.247, 21.869,  3.241,  0.561
 17040,  1.323,  2.325, 21.808,  3.360,  0.536
 17100,  1.331,  2.288, 23.319,  3.363,  0.592
 17160,  1.356,  2.487, 22.085,  3.406,  0.652
 17220,  1.305,  2.396, 22.410,  3.533,  0.673
 17280,  1.300,  2.188, 20.965,  3.453,  0.612
 17340,  1.334,  2.294, 21.729,  3.343,  0.633
 17400,  1.374,  2.159, 22.501,  3.446,  0.657
 17460,  1.307,  2.189, 22.798,  3.397,  0.703
 17520,  1.316,  2.346, 21.640,  3.394,  0.686
 17580,  1.329,  2.413, 22.304,  3.438,  0.643
 17640,  1.330,  2.095, 22.113,  3.252,  0.682
 17700,  1.311,  2.128, 21.950,  3.269,  0.633
 17760,  1.242,  2.356, 21.758,  3.184,  0.698
 17820,  1.271,  2.090, 21.043,  3.166,  0.603
 17880,  1.266,  1.908, 21.742,  3.071,  0.632
 17940,  1.281,  2.171, 21.909,  3.051,  0.621
 18000,  1.266,  1.901, 21.945,  3.217,  0.671
 18060,  1.296,  2.152, 22.074,  3.023,  0.628
 18120,  1.244,  2.182, 21.363,  3.047,  0.650
 18180,  1.245,  2.213, 21.991,  3.067,  0.696
 18240,  1.255,  2.085, 21.275,  2.969,  0.654
 18300,  1.282,  2.159, 21.428,  3.142,  0.592
 18360,  1.309,  1.958, 20.950,  2.992,  0.640
 18420,  1.302,  2.180, 21.165,  3.049,  0.657
 18480,  1.267,  2.334, 22.247,  3.175,  0.722
 18540,  1.251,  2.260, 21.746,  3.180,  0.746
 18600,  1.339,  2.250, 21.854,  3.236,  0.660
 18660,  1.281,  2.261, 21.985,  3.185,  0.688
 18720,  1.288,  2.268, 20.917,  3.231,  0.590
 18780,  1.331,  2.458, 21.391,  3.226,  0.684
 18840,  1.304,  2.368, 21.742,  3.266,  0.690
 18900,  1.246,  2.082, 20.898,  3.111,  0.561
 18960,  1.322,  2.446, 22.301,  3.129,  0.663
 19020,  1.269,  2.466, 24.307,  3.393,  0.387
 19080,  1.227,  2.237, 17.597,  2.703,  0.518
 19140,  1.269,  2.628, 19.653,  3.271,  0.494
 19200,  1.285,  2.504, 20.223,  3.325,  0.617
 19260,  1.339,  2.497, 20.611,  3.363,  0.605
 19320,  1.282,  2.554, 21.366,  3.205,  0.643
 19380,  1.340,  2.533, 22.124,  3.241,  0.594
 19440,  1.302,  2.592, 22.197,  3.225,  0.621
 19500,  1.310,  2.606, 23.023,  3.237,  0.634
 19560,  1.303,  2.480, 22.026,  3.347,  0.615
 19620,  1.366,  2.606, 22.580,  3.426,  0.725
 19680,  1.335,  2.566, 22.603,  3.220,  0.650
 19740,  1.309,  2.498, 22.109,  3.330,  0.716
 19800,  1.331,  2.473, 22.504,  3.366,  0.738
 19860,  1.279,  2.476, 22.782,  3.256,  0.618
 19920,  1.327,  2.587, 23.338,  3.205,  0.758
 19980,  1.271,  2.265, 23.307,  3.048,  0.808
 20040,  1.208,  2.055, 21.904,  2.853,  0.684
 20100,  1.258,  2.129, 22.025,  2.770,  0.690
 20160,  1.200,  1.911, 20.843,  2.803,  0.664
 20220,  1.231,  2.070, 20.401,  2.633,  0.649
 20280,  1.195,  1.997, 21.499,  2.607,  0.596
 20340,  1.199,  2.102, 21.672,  2.643,  0.727
 20400,  1.190,  1.728, 19.895,  2.542,  0.696
 20460,  1.178,  1.877, 20.140,  2.541,  0.693
 20520,  1.143,  1.732, 19.317,  2.502,  0.613
 20580,  1.146,  1.941, 18.995,  2.353,  0.771
 20640,  1.153,  1.804, 19.515,  2.298,  0.695
 20700,  1.122,  1.754, 19.321,  2.460,  0.739
 20760,  1.146,  1.756, 20.398,  2.410,  0.680
 20820,  1.162,  1.791, 19.710,  2.563,  0.725
 20880,  1.160,  2.033, 19.509,  2.530,  0.751
 20940,  1.106,  2.009, 19.119,  2.400,  0.709
 21000,  1.138,  1.822, 18.485,  2.393,  0.674
 21060,  1.168,  1.892, 17.738,  2.505,  0.794
 21120,  1.184,  1.951, 19.993,  2.646,  0.671
 21180,  1.175,  2.057, 19.821,  2.722,  0.793
 21240,  1.142,  2.104, 20.059,  2.517,  0.757
 21300,  1.188,  1.970, 19.895,  2.685,  0.787
 21360,  1.221,  2.105, 19.620,  2.750,  0.798
 21420,  1.179,  2.151, 19.630,  2.751,  0.704
 21480,  1.242,  1.936, 20.093,  2.779,  0.716
 21540,  1.236,  2.211, 20.702,  2.756,  0.764
 21600,  1.229,  2.342, 21.461,  2.857,  0.856
 21660,  1.277,  2.260, 21.257,  2.765,  0.851
 21720,  1.245,  2.294, 21.400,  2.884,  0.750
 21780,  1.270,  2.236, 20.904,  2.800,  0.745
 21840,  1.211,  2.214, 21.540,  2.903,  0.786
 21900,  1.209,  2.153, 21.269,  2.851,  0.901
 21960,  1.253,  2.242, 22.651,  2.809,  0.854
 22020,  1.258,  2.342, 22.053,  2.953,  0.820
 22080,  1.198,  2.278, 21.141,  2.829,  0.820
 22140,  1.211,  2.247, 21.453,  2.939,  0.802
 22200,  1.205,  2.239, 21.200,  2.880,  0.688
 22260,  1.197,  2.167, 20.170,  2.916,  0.707
 22320,  1.222,  2.288, 21.869,  2.855,  0.834
 22380,  1.176,  2.007, 21.412,  2.735,  0.818
 22440,  1.207,  2.077, 21.085,  2.748,  0.746
 22500,  1.203,  2.247, 21.707,  2.907,  0.800
 22560,  1.205,  2.385, 20.356,  2.805,  0.851
 22620,  1.163,  2.201, 21.401,  2.700,  0.659
 22680,  1.204,  2.253, 21.187,  2.579,  0.810
 22740, -9999.000, -9999.000, -9999.000, -9999.000, -9999.000
 22800,  1.149,  2.143, 19.517,  2.715,  0.747
 22860,  1.128,  2.106, 19.710,  2.841,  0.732
 22920,  1.150,  2.288, 19.248,  2.702,  0.756
 22980,  1.162,  2.046, 18.725,  2.852,  0.739
 23040,  1.180,  2.050, 19.472,  2.820,  0.746
 23100,  1.188,  2.049, 19.667,  2.890,  0.805
 23160,  1.195,  2.111, 20.071,  2.730,  0.831
 23220,  1.152,  2.052, 19.810,  2.800,  0.792
 23280,  1.130,  2.195, 20.807,  2.640,  0.855
 23340,  1.118,  2.075, 20.705,  2.662,  0.755
 23400,  1.087,  1.897, 19.498,  2.621,  0.652
 23460,  1.121,  2.110, 19.931,  2.709,  0.846
 23520,  1.109,  1.839, 18.943,  2.541,  0.774
 23580,  1.121,  1.909, 18.174,  2.432,  0.705
 23640,  1.135,  1.975, 19.444,  2.529,  0.756
 23700,  1.127,  2.120, 19.624,  2.584,  0.762
 23760,  1.135,  2.024, 18.910,  2.461,  0.807
 23820,  1.122,  1.958, 19.789,  2.612,  0.851
 23880,  1.173,  2.029, 19.815,  2.701,  0.864
 23940,  1.167,  2.004, 19.602,  2.598,  0.910
 24000,  1.257,  2.064, 19.673,  3.079,  0.915
 24060,  1.282,  2.458, 20.265,  3.078,  0.909
 24120,  1.307,  2.514, 20.352,  3.150,  0.893
 24180,  1.351,  2.853, 21.232,  3.578,  1.043
 24240,  1.402,  2.719, 20.764,  3.641,  1.012
 24300,  1.378,  2.663, 21.272,  3.493,  0.950
 24360,  1.338,  2.575, 20.255,  3.244,  0.928
 24420,  1.266,  2.282, 20.562,  3.264,  0.905
 24480,  1.186,  2.207, 21.018,  2.994,  0.891
 24540,  1.186,  1.976, 20.242,  2.836,  0.934
 24600, -9999.000, -9999.000, -9999.000, -9999.000, -9999.000
 24660,  1.251,  2.466, 18.587,  3.040,  0.860
 24720,  1.303,  2.604, 18.965,  3.126,  0.929
 24780,  1.234,  2.219, 18.226,  3.082,  0.839
 24840,  1.130,  1.754, 18.741,  2.621,  0.854
 24900,  1.128,  1.778, 19.087,  2.482,  0.791
 24960,  1.139,  1.767, 18.776,  2.520,  0.751
 25020,  1.070,  1.718, 18.757,  2.455,  0.851
 25080,  1.094,  1.742, 18.160,  2.365,  0.842
 25140,  1.053,  1.803, 17.989,  2.331,  0.746
 25200,  1.040,  1.519, 17.940,  2.377,  0.780
 25260,  1.028,  1.564, 17.163,  2.148,  0.780
 25320,  1.039,  1.771, 18.381,  2.243,  0.814
 25380,  1.032,  1.650, 18.785,  2.240,  0.821
 25440,  1.061,  1.636, 18.394,  2.329,  0.830
 25500,  1.051,  1.613, 18.519,  2.289,  0.829
 25560,  1.056,  1.621, 18.306,  2.321,  0.788
 25620,  1.033,  1.458, 18.921,  2.251,  0.800
 25680,  1.018,  1.626, 17.982,  2.327,  0.826
 25740,  1.045,  1.501, 18.364,  2.320,  0.769
 25800,  1.053,  1.413, 19.587,  2.311,  0.877
 25860,  1.048,  1.705, 19.539,  2.245,  0.891
 25920,  1.026,  1.524, 18.555,  2.247,  0.774
 25980,  1.045,  1.613, 19.409,  2.425,  0.937
 26040,  1.060,  1.583, 18.043,  2.274,  0.803
 26100,  1.066,  1.450, 18.661,  2.333,  0.854
 26160,  1.038,  1.470, 18.364,  2.352,  0.811
 26220,  1.033,  1.406, 18.074,  2.186,  0.825
 26280,  1.064,  1.536, 20.269,  2.390,  0.864
 26340,  1.045,  1.754, 18.357,  2.267,  0.789
 26400,  1.105,  1.362, 18.794,  2.416,  1.012
 26460, -9999.000, -9999.000, -9999.000, -9999.000, -9999.000
 26520,  1.046,  1.540, 15.587,  2.238,  0.699
 26580,  1.046,  1.609, 16.321,  2.224,  0.820
 26640,  1.033,  1.407, 16.437,  2.322,  0.822
 26700,  1.024,  1.369, 16.534,  2.235,  0.731
 26760,  1.011,  1.376, 16.530,  2.196,  0.766
 26820,  0.993,  1.415, 16.479,  2.126,  0.737
 26880,  1.031,  1.386, 16.107,  2.025,  0.834
 26940,  1.034,  1.422, 16.196,  2.159,  0.778
 27000,  1.052,  1.371, 17.436,  2.336,  0.754
 27060,  1.006,  1.405, 16.922,  2.189,  0.770
 27120,  0.969,  1.524, 17.141,  2.066,  0.761
 27180,  1.018,  1.498, 17.415,  2.254,  0.754
 27240,  1.038,  1.562, 16.338,  2.204,  0.813
 27300,  1.114,  1.711, 17.347,  2.518,  0.765
 27360,  1.305,  2.062, 18.132,  3.061,  0.758
 27420,  1.394,  2.188, 19.056,  3.205,  0.811
 27480,  1.476,  2.905, 21.444,  3.507,  0.934
 27540,  1.492,  2.795, 21.382,  3.711,  0.916
 27600,  1.607,  3.460, 23.056,  4.439,  0.986
 27660,  1.821,  4.134, 24.526,  5.039,  1.267
 27720,  1.884,  4.117, 23.825,  5.231,  1.203
 27780,  1.900,  3.678, 24.666,  5.310,  1.249
 27840,  1.617,  3.019, 26.419,  4.432,  1.056
 27900,  1.847,  4.138, 27.183,  4.992,  1.132
 27960,  2.070,  4.857, 27.708,  5.946,  1.433
 28020,  1.937,  4.257, 26.972,  5.425,  1.413
 28080,  2.150,  5.463, 27.485,  6.044,  1.460
 28140,  2.295,  5.574, 28.711,  6.737,  1.604
 28200,  2.166,  5.322, 28.984,  6.298,  1.618
 28260,  2.088,  4.407, 27.901,  5.724,  1.347
 28320,  1.769,  3.511, 27.367,  4.831,  1.185
 28380,  1.804,  3.743, 27.899,  4.825,  1.188
 28440,  1.893,  3.901, 28.047,  5.090,  1.209
 28500,  1.950,  4.180, 31.613,  5.145,  1.199
 28560,  1.922,  3.743, 30.787,  4.998,  1.123
 28620,  1.794,  3.275, 29.652,  4.517,  1.091
 28680,  1.748,  3.342, 31.563,  4.383,  1.124
 28740,  1.701,  2.988, 31.081,  4.179,  0.998
 28800,  1.660,  2.738, 31.901,  4.086,  0.976
 28860,  1.662,  2.950, 32.316,  3.997,  1.041
 28920,  1.635,  2.983, 32.195,  4.123,  0.932
 28980,  1.695,  2.750, 31.707,  3.991,  0.935
 29040,  1.675,  2.793, 34.696,  3.774,  0.992
 29100,  1.597,  2.385, 33.074,  3.646,  0.870
 29160,  1.450,  1.878, 31.559,  3.284,  0.728
 29220,  1.417,  1.971, 30.754,  3.167,  0.658
 29280,  1.361,  2.061, 28.978,  3.022,  0.593
 29340,  1.376,  1.861, 28.016,  3.018,  0.549
 29400,  1.399,  1.755, 26.338,  2.844,  0.490
 29460,  1.424,  1.723, 25.490,  2.930,  0.370
 29520,  1.449,  1.808, 25.904,  2.850,  0.429
 29580,  1.473,  1.787, 24.639,  2.853,  0.382
 29640,  1.481,  1.841, 24.792,  2.928,  0.452
 29700,  1.468,  1.856, 25.019,  2.871,  0.390
 29760,  1.474,  1.938, 24.743,  3.062,  0.331
 29820,  1.523,  1.856, 25.476,  3.189,  0.361
 29880,  1.504,  1.962, 25.495,  3.129,  0.294
 29940,  1.546,  1.725, 25.370,  3.098,  0.318
 30000,  1.560,  2.024, 26.920,  3.256,  0.379
 30060,  1.514,  2.078, 26.382,  3.158,  0.376
 30120, -9999.000, -9999.000, -9999.000, -9999.000, -9999.000
 30180,  1.462,  1.884, 23.181,  2.871,  0.252
 30240,  1.457,  1.774, 23.516,  3.023,  0.227
 30300,  1.560,  1.928, 26.177,  3.125,  0.306
 30360,  1.508,  1.911, 24.798,  3.126,  0.350
 30420,  1.555,  1.735, 25.604,  3.006,  0.262
 30480,  1.591,  1.849, 26.679,  3.112,  0.271
 30540,  1.589,  1.919, 27.028,  3.217,  0.278
 30600,  1.566,  1.893, 27.618,  3.197,  0.246
 30660,  1.554,  2.065, 27.470,  3.261,  0.266
 30720,  1.594,  1.833, 25.502,  3.339,  0.265
 30780,  1.570,  1.930, 26.169,  3.214,  0.234
 30840,  1.580,  1.764, 26.631,  3.158,  0.331
 30900,  1.613,  1.899, 26.271,  3.339,  0.269
 30960,  1.637,  1.891, 27.684,  3.341,  0.279
 31020,  1.650,  1.910, 27.300,  3.332,  0.286
 31080,  1.622,  1.778, 26.372,  3.433,  0.282
 31140,  1.618,  1.784, 26.330,  3.355,  0.303
 31200,  1.633,  1.716, 26.266,  3.234,  0.250
 31260,  1.594,  1.784, 25.963,  3.364,  0.302
 31320,  1.593,  1.565, 26.349,  3.239,  0.254
 31380,  1.599,  1.427, 26.412,  3.132,  0.293
 31440,  1.593,  1.545, 26.239,  3.153,  0.383
 31500,  1.545,  1.517, 26.111,  3.123,  0.278
 31560,  1.537,  1.508, 24.632,  2.963,  0.304
 31620,  1.550,  1.585, 25.731,  3.088,  0.381
 31680,  1.523,  1.330, 24.912,  3.030,  0.387
 31740,  1.572,  1.274, 26.102,  3.029,  0.375
 31800,  1.518,  1.273, 25.936,  3.049,  0.456
 31860,  1.503,  1.407, 25.805,  2.970,  0.407
 31920,  1.490,  1.188, 26.160,  2.902,  0.415
 31980, -9999.000, -9999.000, -9999.000, -9999.000, -9999.000
 32040,  1.434,  1.086, 22.513,  2.857,  0.366
 32100,  1.445,  1.195, 23.895,  2.983,  0.395
 32160,  1.445,  1.262, 23.531,  2.848,  0.403
 32220,  1.447,  1.099, 23.719,  2.972,  0.392
 32280,  1.437,  1.385, 24.611,  2.850,  0.375
 32340,  1.500,  1.432, 25.302,  2.903,  0.471
 32400,  1.458,  1.426, 25.990,  2.910,  0.436
 32460,  1.468,  1.328, 25.799,  3.063,  0.517
 32520,  1.462,  1.600, 25.658,  2.868,  0.506
 32580,  1.433,  1.385, 26.486,  2.873,  0.544
 32640,  1.433,  1.447, 26.244,  2.940,  0.647
 32700,  1.393,  1.475, 27.343,  2.862,  0.715
 32760,  1.343,  1.561, 28.401,  2.934,  0.717
 32820,  1.328,  1.564, 27.616,  2.849,  0.792
 32880,  1.237,  1.485, 27.409,  2.661,  0.859
 32940,  1.222,  1.692, 27.965,  2.633,  0.905
 33000,  1.229,  1.399, 26.109,  2.588,  0.754
 33060,  1.202,  1.354, 26.032,  2.479,  0.849
 33120,  1.217,  1.682, 27.055,  2.662,  0.877
 33180,  1.246,  1.699, 26.853,  2.809,  0.834
 33240,  1.191,  1.617, 26.385,  2.662,  0.808
 33300,  1.180,  1.614, 26.423,  2.612,  0.733
 33360,  1.206,  1.621, 25.155,  2.546,  0.776
 33420,  1.148,  1.608, 24.321,  2.525,  0.776
 33480,  1.171,  1.711, 25.692,  2.661,  0.804
 33540,  1.185,  1.598, 25.607,  2.514,  0.753
 33600,  1.152,  1.727, 25.796,  2.531,  0.681
 33660,  1.182,  1.660, 25.339,  2.566,  0.673
 33720,  1.153,  1.624, 24.129,  2.592,  0.683
 33780,  1.197,  1.690, 22.699,  2.460,  0.643
 33840, -9999.000, -9999.000, -9999.000, -9999.000, -9999.000
 33900,  1.116,  1.658, 20.259,  2.290,  0.508
 33960,  1.116,  1.470, 21.927,  2.559,  0.527
 34020,  1.133,  1.474, 22.398,  2.456,  0.539
 34080,  1.124,  1.672, 21.279,  2.329,  0.610
 34140,  1.156,  1.537, 20.338,  2.438,  0.544
 34200,  1.215,  1.543, 21.727,  2.637,  0.630
 34260,  1.191,  1.639, 22.757,  2.446,  0.578
 34320,  1.206,  1.739, 22.540,  2.648,  0.593
 34380,  1.196,  1.690, 21.915,  2.621,  0.662
 34440,  1.190,  1.835, 21.473,  2.582,  0.602
 34500,  1.172,  1.499, 21.229,  2.698,  0.663
 34560,  1.204,  1.514, 22.746,  2.627,  0.688
 34620,  1.241,  1.723, 23.665,  2.656,  0.769
 34680,  1.227,  1.576, 23.654,  2.727,  0.787
 34740,  1.229,  1.618, 23.158,  2.661,  0.739
 34800,  1.323,  1.655, 24.811,  2.960,  0.857
 34860,  1.386,  1.728, 24.915,  3.117,  0.794
 34920,  1.521,  1.907, 28.070,  3.694,  0.796
 34980,  1.562,  2.058, 29.871,  3.521,  0.884
 35040,  1.613,  2.133, 29.525,  3.695,  0.827
 35100,  1.611,  2.090, 28.993,  3.675,  0.883
 35160,  1.544,  2.017, 28.063,  3.660,  0.720
 35220,  1.620,  2.122, 28.045,  3.855,  0.873
 35280,  1.690,  2.104, 30.087,  4.034,  0.949
 35340,  1.596,  2.302, 29.621,  3.652,  0.800
 35400,  1.606,  2.003, 28.401,  3.822,  0.869
 35460,  1.544,  2.016, 24.788,  3.531,  0.727
 35520,  1.550,  2.083, 25.674,  3.483,  0.754
 35580,  1.539,  1.943, 25.539,  3.456,  0.742
 35640,  1.627,  2.165, 25.668,  3.819,  0.770
 35700,  1.768,  2.098, 25.273,  3.699,  0.785
 35760,  1.954,  1.940, 28.524,  4.199,  0.777
 35820,  2.183,  2.037, 29.876,  4.703,  0.844
 35880,  2.008,  2.221, 30.591,  4.570,  0.834
 35940,  1.717,  2.062, 29.203,  3.977,  0.786
 36000,  1.376,  1.849, 24.425,  3.256,  0.635
 36060,  1.281,  1.612, 22.515,  2.942,  0.662
 36120,  1.370,  1.706, 23.084,  3.015,  0.689
 36180,  1.463,  1.736, 24.486,  3.145,  0.694
 36240,  1.309,  1.632, 23.059,  2.876,  0.640
 36300,  1.405,  1.647, 23.460,  2.958,  0.649
 36360,  1.445,  1.795, 24.478,  3.053,  0.654
 36420,  1.348,  1.554, 23.509,  2.823,  0.690
 36480,  1.270,  1.530, 22.557,  2.871,  0.714
 36540,  1.287,  1.660, 21.896,  2.774,  0.697
 36600,  1.301,  1.620, 22.463,  2.838,  0.719
 36660,  1.251,  1.718, 22.977,  2.796,  0.690
 36720,  1.292,  1.589, 21.374,  2.771,  0.685
 36780,  1.316,  1.493, 21.295,  2.718,  0.681
 36840,  1.258,  1.679, 22.204,  2.762,  0.666
 36900,  1.268,  1.530, 22.823,  2.815,  0.741
 36960,  1.254,  1.519, 22.555,  2.616,  0.763
 37020,  1.305,  1.564, 23.306,  3.042,  0.745
 37080,  1.386,  1.403, 23.629,  2.968,  0.737
 37140,  1.412,  1.607, 24.515,  3.052,  0.739
 37200,  1.361,  1.597, 24.484,  3.041,  0.763
 37260,  1.310,  1.605, 25.151,  2.826,  0.780
 37320,  1.250,  1.501, 23.516,  2.725,  0.721
 37380,  1.119,  1.561, 21.094,  2.446,  0.749
 37440,  1.145,  1.434, 20.096,  2.410,  0.700
 37500, -9999.000, -9999.000, -9999.000, -9999.000, -9999.000
 37560,  1.122,  1.148, 18.937,  2.418,  0.665
 37620,  1.134,  1.332, 19.622,  2.380,  0.698
 37680,  1.099,  1.270, 19.542,  2.357,  0.666
 37740,  1.081,  1.420, 19.322,  2.182,  0.703
 37800,  1.067,  1.169, 17.575,  2.135,  0.706
 37860,  1.044,  1.199, 17.962,  2.221,  0.592
 37920,  1.091,  1.342, 17.989,  2.181,  0.705
 37980,  1.058,  1.296, 17.315,  2.121,  0.700
 38040,  1.110,  1.411, 17.897,  2.295,  0.663
 38100,  1.101,  1.295, 18.769,  2.360,  0.684
 38160,  1.085,  1.287, 17.566,  2.411,  0.702
 38220,  1.108,  1.240, 17.545,  2.177,  0.665
 38280,  1.166,  1.361, 18.706,  2.230,  0.773
 38340,  1.095,  1.382, 18.630,  2.197,  0.780
 38400,  1.086,  1.192, 18.604,  2.151,  0.726
 38460,  1.110,  1.273, 19.105,  2.365,  0.750
 38520,  1.140,  1.120, 18.394,  2.161,  0.679
 38580,  1.116,  1.134, 17.543,  2.194,  0.670
 38640,  1.122,  1.314, 19.172,  2.205,  0.741
 38700,  1.113,  1.281, 19.899,  2.320,  0.766
 38760,  1.100,  1.250, 19.015,  2.189,  0.666
 38820,  1.070,  1.301, 19.520,  2.164,  0.723
 38880,  1.108,  1.129, 18.132,  2.160,  0.727
 38940,  1.109,  1.273, 17.826,  2.242,  0.714
 39000,  1.073,  1.153, 18.511,  2.120,  0.776
 39060,  1.134,  1.365, 18.257,  2.164,  0.760
 39120,  1.119,  1.335, 17.904,  2.177,  0.813
 39180,  1.107,  1.173, 17.454,  2.199,  0.677
 39240,  1.098,  1.162, 17.746,  2.251,  0.791
 39300,  1.102,  1.212, 17.359,  2.186,  0.813
 39360,  1.089,  1.464, 16.582,  2.306,  0.618
 39420,  1.089,  0.947, 16.675,  2.018,  0.732
 39480,  1.135,  1.291, 17.121,  2.102,  0.738
 39540,  1.066,  1.192, 17.255,  2.239,  0.769
 39600,  1.112,  1.142, 17.069,  2.289,  0.778
 39660,  1.116,  1.131, 17.302,  2.310,  0.770
 39720,  1.139,  1.308, 18.670,  2.245,  0.742
 39780,  1.103,  1.324, 17.978,  2.218,  0.658
 39840,  1.116,  1.388, 18.659,  2.377,  0.672
 39900,  1.118,  1.283, 18.616,  2.279,  0.703
 39960,  1.098,  1.133, 17.797,  2.274,  0.695
 40020,  1.098,  1.318, 17.580,  2.302,  0.625
 40080,  1.096,  1.279, 17.946,  2.256,  0.668
 40140,  1.124,  1.387, 18.200,  2.250,  0.681
 40200,  1.091,  1.261, 17.609,  2.435,  0.643
 40260,  1.113,  1.343, 17.449,  2.251,  0.741
 40320,  1.108,  1.296, 17.495,  2.336,  0.760
 40380,  1.103,  1.354, 17.465,  2.339,  0.646
 40440,  1.120,  1.440, 18.472,  2.320,  0.720
 40500,  1.103,  1.221, 17.386,  2.376,  0.738
 40560,  1.115,  1.471, 17.353,  2.348,  0.735
 40620,  1.134,  1.421, 17.713,  2.205,  0.766
 40680,  1.086,  1.187, 17.182,  2.222,  0.761
 40740,  1.096,  1.269, 17.038,  2.211,  0.772
 40800,  1.102,  1.259, 18.029,  2.239,  0.775
 40860,  1.071,  1.446, 18.798,  2.357,  0.779
 40920,  1.083,  1.147, 17.711,  2.293,  0.809
 40980,  1.052,  1.304, 16.960,  2.243,  0.785
 41040,  1.065,  1.415, 17.825,  2.302,  0.659
 41100,  1.088,  1.437, 18.249,  2.371,  0.818
 41160,  1.064,  1.219, 18.533,  2.343,  0.771
 41220, -9999.000, -9999.000, -9999.000, -9999.000, -9999.000
 41280,  1.000,  1.226, 15.246,  2.348,  0.665
 41340,  1.033,  1.295, 16.135,  2.186,  0.793
 41400,  1.100,  1.284, 17.409,  2.429,  0.779
 41460,  1.057,  1.457, 17.751,  2.278,  0.881
 41520,  1.072,  1.520, 17.748,  2.394,  0.942
 41580,  1.035,  1.442, 18.029,  2.423,  0.901
 41640,  1.092,  1.420, 17.835,  2.453,  0.984
 41700,  1.103,  1.438, 17.871,  2.391,  0.987
 41760,  1.091,  1.289, 18.335,  2.447,  0.923
 41820,  1.082,  1.640, 18.240,  2.414,  0.981
 41880,  1.075,  1.394, 17.641,  2.402,  0.972
 41940,  1.084,  1.479, 17.789,  2.370,  1.028
 42000,  1.081,  1.618, 17.790,  2.493,  1.014
 42060,  1.081,  1.282, 16.698,  2.332,  0.952
 42120,  1.082,  1.560, 18.102,  2.520,  1.081
 42180,  1.112,  1.562, 16.931,  2.393,  1.066
 42240,  1.086,  1.570, 16.924,  2.404,  1.057
 42300,  1.096,  1.525, 16.606,  2.412,  1.108
 42360,  1.100,  1.577, 17.270,  2.475,  1.002
 42420,  1.052,  1.498, 16.710,  2.584,  1.097
 42480,  1.098,  1.330, 17.434,  2.511,  1.097
 42540,  1.061,  1.609, 17.859,  2.415,  1.163
 42600,  1.111,  1.463, 16.354,  2.409,  0.995
 42660,  1.049,  1.434, 15.389,  2.395,  0.968
 42720,  1.082,  1.674, 16.865,  2.534,  1.140
 42780,  1.135,  1.678, 17.390,  2.421,  1.223
 42840,  1.105,  1.716, 16.430,  2.477,  1.173
 42900,  1.101,  1.819, 16.893,  2.406,  1.215
 42960,  1.082,  1.628, 16.666,  2.370,  1.185
 43020,  1.079,  1.530, 16.692,  2.410,  1.441
 43080,  1.100,  1.056, 15.019,  2.190,  1.379
 43140,  1.084,  1.638, 15.983,  2.472,  1.304
 43200,  1.061,  1.625, 15.016,  2.388,  1.183
 43260,  1.057,  1.631, 14.754,  2.426,  1.265
 43320,  1.086,  1.562, 16.358,  2.469,  1.244
 43380,  1.095,  1.576, 15.647,  2.504,  1.175
 43440,  1.120,  1.627, 16.754,  2.409,  1.277
 43500,  1.062,  1.565, 16.595,  2.370,  1.354
 43560,  1.084,  1.548, 15.589,  2.409,  1.266
 43620,  1.079,  1.581, 15.278,  2.389,  1.237
 43680,  1.120,  1.470, 16.508,  2.402,  1.294
 43740,  1.115,  1.564, 17.189,  2.543,  1.465
 43800,  1.084,  1.516, 16.884,  2.421,  1.315
 43860,  1.051,  1.503, 16.443,  2.405,  1.216
 43920,  1.075,  1.577, 16.607,  2.470,  1.216
 43980,  1.073,  1.513, 15.597,  2.459,  1.190
 44040,  1.121,  1.610, 16.989,  2.473,  1.365
 44100,  1.094,  1.557, 17.232,  2.417,  1.280
 44160,  1.086,  1.591, 16.466,  2.470,  1.269
 44220,  1.104,  1.395, 17.180,  2.457,  1.355
 44280,  1.102,  1.399, 16.109,  2.585,  1.292
 44340,  1.074,  1.445, 16.985,  2.541,  1.379
 44400,  1.100,  1.506, 17.379,  2.567,  1.373
 44460,  1.112,  1.517, 17.272,  2.555,  1.274
 44520,  1.116,  1.537, 17.116,  2.535,  1.375
 44580,  1.101,  1.417, 17.208,  2.612,  1.304
 44640,  1.096,  1.410, 16.748,  2.583,  1.237
 44700,  1.116,  1.499, 17.215,  2.430,  1.254
 44760,  1.133,  1.592, 17.411,  2.669,  1.287
 44820,  1.114,  1.607, 18.072,  2.687,  1.402
 44880,  1.051,  0.901, 16.967,  2.658,  1.553
 44940,  1.098,  0.547, 17.584,  2.668,  1.287
 45000,  1.094,  1.359, 15.101,  2.548,  1.185
 45060,  1.102,  1.346, 16.400,  2.587,  1.349
 45120,  1.103,  1.468, 16.733,  2.557,  1.273
 45180,  1.133,  1.480, 16.851,  2.701,  1.337
 45240,  1.133,  1.431, 17.022,  2.644,  1.482
 45300,  1.138,  1.253, 16.342,  2.531,  1.176
 45360,  1.154,  1.450, 16.963,  2.605,  1.375
 45420,  1.120,  1.476, 18.257,  2.552,  1.382
 45480,  1.106,  1.480, 17.672,  2.426,  1.342
 45540,  1.149,  1.397, 17.196,  2.524,  1.386
 45600,  1.073,  1.139, 17.086,  2.463,  1.439
 45660,  1.107,  1.531, 17.265,  2.477,  1.497
 45720,  1.161,  1.506, 18.042,  2.520,  1.466
 45780,  1.163,  1.529, 17.963,  2.542,  1.450
 45840,  1.160,  1.470, 17.920,  2.602,  1.523
 45900,  1.165,  1.414, 16.800,  2.506,  1.362
 45960,  1.261,  1.858, 17.802,  2.762,  1.333
 46020,  1.310,  1.767, 18.632,  2.950,  1.472
 46080,  1.250,  1.777, 18.568,  2.918,  1.451
 46140,  1.275,  1.629, 18.392,  2.782,  1.346
 46200,  1.267,  1.950, 18.535,  2.913,  1.431
 46260,  1.429,  2.076, 18.495,  3.331,  1.501
 46320,  1.450,  2.369, 18.296,  3.571,  1.456
 46380,  1.491,  2.560, 18.676,  3.655,  1.451
 46440,  1.526,  2.371, 18.634,  3.700,  1.374
 46500,  1.530,  2.637, 18.039,  3.813,  1.399
 46560,  1.541,  2.512, 18.633,  3.772,  1.502
 46620,  1.523,  2.596, 19.412,  3.672,  1.489
 46680,  1.545,  2.657, 19.146,  3.853,  1.357
 46740,  1.552,  2.009, 18.652,  3.946,  1.242
 46800,  1.551,  2.797, 17.287,  3.907,  1.468
 46860,  1.638,  3.300, 19.853,  4.192,  1.908
 46920,  1.815,  3.588, 21.951,  4.723,  2.184
 46980,  1.811,  3.816, 22.064,  4.649,  1.963
 47040,  1.733,  3.409, 21.783,  4.312,  1.696
 47100,  1.705,  3.405, 21.418,  4.208,  1.731
 47160,  1.656,  3.147, 20.893,  4.299,  1.609
 47220,  1.683,  3.027, 20.215,  3.941,  1.470
 47280,  1.660,  3.045, 20.738,  4.018,  1.396
 47340,  1.603,  3.110, 20.935,  3.878,  1.428
 47400,  1.675,  3.121, 19.745,  3.974,  1.439
 47460,  1.645,  3.133, 20.044,  4.051,  1.383
 47520,  1.601,  2.806, 18.915,  3.953,  1.250
 47580,  1.610,  2.992, 18.271,  3.988,  1.262
 47640,  1.623,  2.836, 19.404,  3.940,  1.324
 47700,  1.612,  3.283, 19.142,  3.783,  1.336
 47760,  1.619,  2.827, 19.037,  3.800,  1.269
 47820,  1.587,  2.613, 18.185,  3.537,  1.274
 47880,  1.580,  2.893, 18.757,  3.705,  1.200
 47940,  1.580,  2.721, 18.479,  3.636,  1.190
 48000,  1.536,  2.886, 17.973,  3.459,  1.127
 48060,  1.549,  2.891, 17.836,  3.557,  1.252
 48120,  1.547,  2.490, 17.001,  3.496,  1.106
 48180,  1.529,  2.559, 16.203,  3.507,  1.081
 48240,  1.546,  2.795, 17.236,  3.492,  1.071
 48300,  1.527,  2.845, 17.680,  3.395,  1.132
 48360,  1.552,  2.692, 16.567,  3.380,  1.104
 48420,  1.562,  2.816, 17.257,  3.548,  1.139
 48480,  1.510,  2.603, 15.916,  3.453,  1.090
 48540,  1.542,  2.832, 16.103,  3.483,  1.052
 48600, -9999.000, -9999.000, -9999.000, -9999.000, -9999.000
 48660,  1.455,  2.736, 14.610,  3.136,  1.128
 48720,  1.455,  2.607, 15.221,  3.102,  0.969
 48780,  1.472,  2.650, 15.308,  3.345,  0.973
 48840,  1.466,  2.447, 15.328,  3.079,  1.039
 48900,  1.464,  2.683, 15.624,  3.242,  1.000
 48960,  1.508,  2.762, 16.693,  3.315,  1.083
 49020,  1.525,  2.662, 17.139,  3.360,  1.060
 49080,  1.511,  2.640, 16.694,  3.322,  1.046
 49140,  1.529,  2.607, 16.961,  3.272,  1.004
 49200,  1.496,  2.633, 16.972,  3.216,  0.973
 49260,  1.451,  2.297, 15.399,  3.006,  1.005
 49320,  1.427,  2.394, 16.140,  2.987,  1.003
 49380,  1.408,  2.619, 16.622,  2.928,  0.925
 49440,  1.409,  2.333, 15.532,  2.797,  0.911
 49500,  1.474,  2.384, 15.204,  2.913,  0.902
 49560,  1.494,  2.343, 15.741,  2.991,  0.978
 49620,  1.461,  2.610, 16.779,  2.999,  0.961
 49680,  1.561,  2.234, 17.847,  3.098,  1.049
 49740,  1.524,  2.506, 17.729,  2.980,  1.095
 49800,  1.506,  2.538, 16.306,  2.920,  1.054
 49860,  1.546,  2.510, 16.968,  2.995,  1.187
 49920,  1.587,  2.572, 16.468,  3.082,  1.096
 49980,  1.589,  2.206, 16.742,  3.084,  1.040
 50040,  1.656,  2.471, 18.876,  3.135,  1.292
 50100,  1.629,  2.644, 19.149,  3.180,  1.330
 50160,  1.587,  2.320, 18.101,  3.078,  1.258
 50220,  1.602,  2.470, 16.854,  3.042,  1.229
 50280,  1.564,  2.549, 17.031,  3.039,  1.159
 50340,  1.564,  2.632, 17.334,  3.156,  1.193
 50400,  1.610,  2.511, 17.412,  3.079,  1.119
 50460, -9999.000, -9999.000, -9999.000, -9999.000, -9999.000
 50520,  1.595,  2.657, 17.178,  3.083,  1.126
 50580,  1.657,  2.820, 17.084,  2.927,  1.068
 50640,  1.646,  2.789, 16.431,  3.203,  1.032
 50700,  1.706,  2.873, 18.061,  3.287,  1.138
 50760,  1.561,  2.899, 16.840,  2.980,  1.064
 50820,  1.529,  3.024, 15.855,  2.961,  1.015
 50880,  1.536,  2.822, 14.787,  2.907,  1.019
 50940,  1.542,  2.717, 13.878,  2.874,  0.897
 51000,  1.547,  2.972, 15.384,  2.811,  0.927
 51060,  1.544,  3.245, 16.438,  2.949,  0.990
 51120,  1.542,  3.364, 16.234,  2.888,  1.076
 51180,  1.485,  3.269, 15.707,  2.953,  1.083
 51240,  1.583,  3.132, 16.980,  3.109,  1.075
 51300,  1.643,  3.371, 17.593,  3.069,  1.135
 51360,  1.560,  3.137, 16.522,  3.056,  1.081
 51420,  1.535,  3.331, 15.553,  2.823,  1.013
 51480,  1.478,  3.439, 15.358,  2.740,  0.929
 51540,  1.451,  3.346, 15.780,  2.629,  0.923
 51600,  1.695,  3.114, 17.188,  3.161,  1.130
 51660,  1.733,  3.367, 16.920,  3.399,  1.243
 51720,  1.824,  3.679, 18.017,  3.383,  1.324
 51780,  1.819,  3.743, 17.929,  3.410,  1.395
 51840,  1.842,  3.750, 18.619,  3.614,  1.435
 51900,  1.799,  3.905, 17.981,  3.449,  1.358
 51960,  1.672,  4.041, 16.606,  3.131,  1.202
 52020,  1.623,  4.013, 16.287,  3.042,  1.173
 52080,  1.684,  4.025, 16.650,  3.344,  1.223
 52140,  1.693,  4.425, 17.332,  3.080,  1.198
 52200,  1.691,  4.745, 16.556,  3.300,  1.305
 52260,  1.749,  4.311, 16.800,  3.542,  1.336
 52320, -9999.000, -9999.000, -9999.000, -9999.000, -9999.000
 52380,  1.594,  5.077, 14.053,  3.114,  1.097
 52440,  1.643,  5.351, 16.550,  3.179,  1.180
 52500,  1.625,  5.821, 17.063,  3.210,  1.172
 52560,  1.709,  5.883, 16.174,  3.296,  1.195
 52620,  1.721,  5.830, 16.662,  3.222,  1.203
 52680,  1.654,  6.058, 15.129,  2.966,  1.142
 52740,  1.640,  6.079, 15.216,  2.953,  1.009
 52800,  1.585,  6.222, 14.451,  3.064,  1.046
 52860,  1.643,  6.332, 13.588,  2.989,  1.011
 52920,  1.631,  6.502, 15.379,  3.075,  0.993
 52980,  1.654,  6.734, 15.862,  3.070,  1.139
 53040,  1.620,  6.571, 15.600,  2.934,  1.103
 53100,  1.629,  6.812, 16.417,  3.134,  1.174
 53160,  1.692,  7.295, 16.673,  3.260,  1.099
 53220,  1.753,  7.261, 16.654,  3.120,  1.154
 53280,  1.643,  7.053, 16.364,  2.996,  1.137
 53340,  1.704,  7.626, 17.545,  3.047,  1.195
 53400,  1.700,  7.791, 16.960,  3.167,  1.165
 53460,  1.721,  7.502, 17.196,  3.015,  1.179
 53520,  1.658,  7.086, 18.542,  3.136,  1.148
 53580,  1.616,  6.461, 17.657,  2.818,  1.158
 53640,  1.585,  6.887, 17.472,  2.972,  1.123
 53700,  1.639,  6.787, 16.944,  2.927,  1.221
 53760,  1.645,  6.784, 16.954,  2.879,  1.146
 53820,  1.644,  7.005, 16.905,  2.821,  1.193
 53880,  1.708,  7.410, 16.699,  3.000,  1.145
 53940,  1.637,  7.168, 16.434,  2.972,  1.195
 54000,  1.701,  7.631, 16.697,  2.905,  1.152
 54060,  1.784,  8.149, 15.722,  3.001,  1.183
 54120,  1.825,  8.439, 15.505,  3.159,  1.055
 54180,  1.777,  8.569, 14.968,  3.089,  1.040
 54240,  1.830,  8.747, 15.380,  3.179,  1.234
 54300,  1.902,  8.790, 14.220,  3.205,  1.189
 54360,  1.910,  8.706, 13.846,  3.288,  1.217
 54420,  1.917,  8.562, 13.496,  3.351,  1.313
 54480,  1.822,  8.217, 12.804,  3.387,  1.292
 54540,  1.766,  7.911, 11.866,  3.219,  1.199
 54600,  1.651,  8.031, 11.076,  2.981,  1.234
 54660,  1.639,  7.822, 10.076,  2.907,  1.128
 54720,  1.519,  7.227, 10.673,  2.955,  1.113
 54780,  1.343,  6.898, 10.846,  2.678,  1.141
 54840,  1.295,  6.728, 10.452,  2.631,  1.143
 54900,  1.127,  5.297, 10.432,  2.401,  1.013
 54960,  1.085,  4.989,  9.728,  2.300,  0.960
 55020,  0.985,  4.673,  8.984,  2.180,  0.923
 55080,  0.933,  4.426,  9.443,  2.207,  0.921
 55140,  0.851,  4.309,  8.443,  2.031,  0.833
 55200,  0.832,  4.089,  7.428,  2.089,  0.717
 55260,  0.830,  5.085,  7.082,  1.959,  0.823
 55320,  0.931,  5.134,  6.364,  2.028,  0.793
 55380,  0.852,  4.639,  5.322,  1.767,  0.774
 55440,  0.889,  4.851,  5.273,  1.854,  0.696
 55500,  0.757,  3.760,  4.598,  1.833,  0.694
 55560,  0.732,  3.968,  4.855,  1.662,  0.711
 55620,  0.809,  4.634,  6.407,  1.312,  0.635
 55680, -9999.000, -9999.000, -9999.000, -9999.000, -9999.000
 55740, -9999.000, -9999.000, -9999.000, -9999.000, -9999.000
 55800, -9999.000, -9999.000, -9999.000, -9999.000, -9999.000
 55860, -9999.000, -9999.000, -9999.000, -9999.000, -9999.000
 55920, -9999.000, -9999.000, -9999.000, -9999.000, -9999.000
 55980, -9999.000, -9999.000, -9999.000, -9999.000, -9999.000
 56040, -9999.000, -9999.000, -9999.000, -9999.000, -9999.000
 56100, -9999.000, -9999.000, -9999.000, -9999.000, -9999.000
 56160, -9999.000, -9999.000, -9999.000, -9999.000, -9999.000
 56220, -9999.000, -9999.000, -9999.000, -9999.000, -9999.000
 56280, -9999.000, -9999.000, -9999.000, -9999.000, -9999.000
 56340, -9999.000, -9999.000, -9999.000, -9999.000, -9999.000
 56400, -9999.000, -9999.000, -9999.000, -9999.000, -9999.000
 56460, -9999.000, -9999.000, -9999.000, -9999.000, -9999.000
 56520, -9999.000, -9999.000, -9999.000, -9999.000, -9999.000
 56580, -9999.000, -9999.000, -9999.000, -9999.000, -9999.000
 56640, -9999.000, -9999.000, -9999.000, -9999.000, -9999.000
 56700, -9999.000, -9999.000, -9999.000, -9999.000, -9999.000
 56760, -9999.000, -9999.000, -9999.000, -9999.000, -9999.000
 56820, -9999.000, -9999.000, -9999.000, -9999.000, -9999.000
 56880, -9999.000, -9999.000, -9999.000, -9999.000, -9999.000
 56940, -9999.000, -9999.000, -9999.000, -9999.000, -9999.000
 57000, -9999.000, -9999.000, -9999.000, -9999.000, -9999.000
 57060, -9999.000, -9999.000, -9999.000, -9999.000, -9999.000
 57120, -9999.000, -9999.000, -9999.000, -9999.000, -9999.000
 57180, -9999.000, -9999.000, -9999.000, -9999.000, -9999.000
 57240, -9999.000, -9999.000, -9999.000, -9999.000, -9999.000
 57300, -9999.000, -9999.000, -9999.000, -9999.000, -9999.000
 57360, -9999.000, -9999.000, -9999.000, -9999.000, -9999.000
 57420, -9999.000, -9999.000, -9999.000, -9999.000, -9999.000
 57480, -9999.000, -9999.000, -9999.000, -9999.000, -9999.000
 57540,  0.022, -9999.000, -9999.000, -0.094, -9999.000
 57600, -0.112, -9999.000, -9999.000,  0.011, -9999.000
 57660, -0.146, -9999.000, -9999.000, -0.019, -9999.000
 57720, -9999.000, -9999.000, -9999.000, -9999.000, -9999.000
 57780, -9999.000, -9999.000, -9999.000, -9999.000, -9999.000
 57840,  3.857, -9999.000, 20.981,  3.921,  0.902
 57900,  3.947, 25.319, 20.924,  3.913,  1.137
 57960,  4.169, 24.798, 18.984,  3.870,  1.161
 58020,  4.442, 23.785, 18.361,  3.869,  1.058
 58080,  4.471, 24.546, 18.862,  3.987,  1.185
 58140,  4.653, 22.901, 16.733,  4.008,  1.097
 58200,  4.863, 23.303, 17.684,  4.060,  1.081
 58260,  4.799, 22.837, 17.331,  3.936,  1.086
 58320,  4.605, 22.024, 17.176,  3.926,  1.031
 58380,  4.699, 22.092, 17.147,  4.070,  1.070
 58440,  4.718, 22.130, 16.443,  4.080,  1.167
 58500,  4.815, 21.941, 16.401,  3.957,  1.081
 58560,  4.820, 22.407, 15.779,  3.928,  1.081
 58620,  4.965, 22.113, 15.321,  3.978,  0.983
 58680,  5.089, 23.261, 16.483,  4.177,  1.096
 58740,  5.155, 22.783, 15.934,  4.233,  1.202
 58800,  4.853, 18.890, 14.731,  4.092,  1.100
 58860,  4.715, 17.240, 12.160,  3.736,  0.912
 58920,  4.976, 18.588, 12.540,  4.087,  0.977
 58980,  5.119, 18.230, 12.965,  4.060,  1.054
 59040,  5.337, 18.997, 12.883,  4.035,  1.022
 59100,  5.430, 18.449, 11.586,  4.279,  0.917
 59160,  5.545, 19.945, 13.526,  4.121,  1.116
 59220,  5.454, 18.968, 12.890,  4.131,  0.965
 59280,  5.606, 19.344, 14.023,  4.167,  0.996
 59340,  5.623, 19.349, 14.107,  4.320,  1.029
 59400,  5.228, 17.741, 13.547,  3.873,  0.986
 59460,  4.549, 15.032, 12.623,  3.579,  0.814
 59520,  4.448, 15.403, 12.565,  3.498,  0.697
 59580,  4.560, 15.333, 12.965,  3.381,  0.712
 59640, -9999.000, -9999.000, -9999.000, -9999.000, -9999.000
 59700,  4.248, 13.924, 11.072,  3.500,  0.621
 59760,  4.280, 14.313, 11.738,  3.477,  0.736
 59820,  4.098, 13.545, 11.545,  3.193,  0.656
 59880,  3.593, 11.806, 11.665,  2.995,  0.568
 59940,  4.039, 13.228, 11.926,  3.257,  0.691
 60000,  3.917, 12.801, 11.632,  3.301,  0.822
 60060,  4.520, 15.564, 12.725,  3.460,  0.928
 60120,  4.697, 16.121, 13.270,  3.471,  0.940
 60180,  4.326, 15.012, 12.763,  3.259,  0.906
 60240,  4.288, 14.996, 13.540,  3.284,  0.874
 60300,  4.274, 14.376, 14.513,  3.277,  0.883
 60360,  4.433, 14.445, 12.856,  3.368,  0.811
 60420,  4.515, 14.308, 13.349,  3.310,  0.768
 60480,  4.925, 15.835, 13.613,  3.431,  0.771
 60540,  5.030, 16.099, 15.002,  3.574,  0.821
 60600,  4.969, 16.389, 13.991,  3.590,  0.760
 60660,  4.739, 15.288, 15.240,  3.488,  0.846
 60720,  2.909,  9.309, 13.220,  2.845,  0.608
 60780,  2.735,  9.239, 13.588,  2.670,  0.644
 60840,  2.913, 10.076, 13.105,  2.744,  0.659
 60900,  2.775, 10.348, 14.426,  2.657,  0.652
 60960,  2.361,  8.797, 13.617,  2.436,  0.547
 61020,  2.104,  8.576, 13.710,  2.218,  0.591
 61080,  2.053,  8.115, 14.236,  2.219,  0.562
 61140,  2.075,  8.644, 15.136,  2.202,  0.575
 61200,  2.139,  8.821, 14.884,  2.240,  0.584
 61260,  2.179,  9.156, 15.495,  2.414,  0.548
 61320,  2.282,  9.475, 15.856,  2.322,  0.575
 61380,  2.170,  8.974, 16.583,  2.256,  0.530
 61440,  2.226,  8.955, 16.205,  2.374,  0.553
 61500, -9999.000, -9999.000, -9999.000, -9999.000, -9999.000
 61560,  2.022,  6.951, 13.991,  2.420,  0.497
 61620,  2.125,  7.780, 14.202,  2.518,  0.476
 61680,  2.156,  8.026, 13.738,  2.397,  0.479
 61740,  2.154,  7.996, 13.411,  2.374,  0.537
 61800,  2.173,  8.400, 13.831,  2.546,  0.487
 61860,  2.105,  8.152, 13.674,  2.436,  0.488
 61920,  2.127,  8.100, 14.034,  2.431,  0.600
 61980,  2.039,  7.512, 13.988,  2.187,  0.532
 62040,  2.031,  7.342, 13.588,  2.271,  0.516
 62100,  1.960,  6.988, 13.505,  2.294,  0.505
 62160,  1.967,  6.717, 12.749,  2.276,  0.544
 62220,  1.925,  7.005, 13.201,  2.259,  0.529
 62280,  1.936,  7.334, 13.335,  2.226,  0.557
 62340,  1.965,  7.152, 12.421,  2.214,  0.516
 62400,  1.867,  5.759, 13.045,  2.175,  0.448
 62460,  1.795,  5.532, 13.305,  2.205,  0.506
 62520,  1.891,  6.184, 12.688,  2.206,  0.536
 62580,  1.955,  7.250, 13.431,  2.283,  0.599
 62640,  2.069,  7.976, 13.752,  2.341,  0.599
 62700,  2.134,  8.054, 14.035,  2.265,  0.609
 62760,  2.225,  9.301, 14.302,  2.329,  0.647
 62820,  2.283,  8.286, 14.856,  2.149,  0.524
 62880,  2.274,  7.798, 15.828,  2.313,  0.522
 62940,  2.234,  7.795, 15.419,  2.273,  0.464
 63000,  2.296,  8.363, 15.778,  2.374,  0.596
 63060,  2.338,  8.903, 16.045,  2.398,  0.635
 63120,  2.172,  7.011, 15.201,  2.330,  0.566
 63180,  2.191,  7.242, 15.180,  2.241,  0.631
 63240,  2.101,  7.147, 15.362,  2.251,  0.598
 63300,  2.161,  6.899, 14.566,  2.206,  0.610
 63360, -9999.000, -9999.000, -9999.000, -9999.000, -9999.000
 63420,  2.245,  7.856, 13.198,  2.435,  0.527
 63480,  2.345,  8.440, 14.159,  2.344,  0.534
 63540,  2.491,  8.767, 15.430,  2.547,  0.539
 63600,  2.592,  9.404, 16.932,  2.475,  0.519
 63660,  2.705,  9.866, 17.211,  2.395,  0.599
 63720,  2.775, 10.658, 18.102,  2.438,  0.523
 63780,  3.010, 11.556, 19.878,  2.450,  0.477
 63840,  3.005, 11.461, 20.537,  2.460,  0.502
 63900,  2.879, 11.148, 21.247,  2.499,  0.515
 63960,  2.637,  9.695, 19.840,  2.428,  0.398
 64020,  2.467,  7.752, 18.431,  2.476,  0.400
 64080,  2.461,  7.803, 18.044,  2.343,  0.369
 64140,  2.614,  8.572, 19.194,  2.409,  0.525
 64200,  2.826,  9.376, 18.373,  2.568,  0.454
 64260,  2.861,  9.246, 18.273,  2.453,  0.371
 64320,  2.799,  8.316, 18.818,  2.509,  0.479
 64380,  2.878,  8.817, 18.562,  2.525,  0.420
 64440,  2.844,  8.973, 19.205,  2.441,  0.415
 64500,  2.982,  9.788, 18.576,  2.654,  0.473
 64560,  3.065,  9.658, 18.388,  2.614,  0.542
 64620,  3.215,  9.431, 18.017,  2.721,  0.457
 64680,  3.503,  8.461, 16.877,  2.649,  0.386
 64740,  3.498,  9.093, 16.445,  2.742,  0.408
 64800,  3.382,  9.562, 17.064,  2.644,  0.377
 64860,  3.561, 10.571, 17.894,  2.854,  0.440
 64920,  3.813, 11.056, 18.110,  2.953,  0.496
 64980,  3.934, 11.669, 18.486,  2.960,  0.437
 65040,  3.792, 11.140, 18.117,  2.858,  0.438
 65100,  3.696, 10.390, 17.631,  2.842,  0.351
 65160,  3.759, 10.211, 17.332,  2.872,  0.552
 65220,  4.144, 11.100, 17.219,  2.896,  0.377
 65280,  4.239, 11.268, 17.619,  3.003,  0.376
 65340,  4.410, 12.535, 18.482,  3.103,  0.446
 65400,  4.846, 11.719, 18.036,  3.046,  0.404
 65460,  4.872, 11.085, 17.491,  3.016,  0.378
 65520,  4.521,  9.878, 16.968,  3.082,  0.347
 65580,  4.411,  9.698, 17.150,  2.971,  0.373
 65640,  4.655, 10.831, 17.645,  3.001,  0.333
 65700,  5.047, 11.429, 18.469,  2.976,  0.355
 65760,  5.242, 11.520, 18.513,  3.084,  0.421
 65820,  5.313, 11.898, 18.378,  3.143,  0.400
 65880,  5.320, 11.293, 19.252,  3.384,  0.407
 65940,  5.324, 11.310, 18.297,  3.333,  0.388
 66000,  5.365, 12.335, 19.304,  3.273,  0.487
 66060,  5.286, 12.271, 19.952,  3.334,  0.437
 66120,  5.301, 12.412, 20.000,  3.409,  0.374
 66180,  5.181, 11.516, 18.966,  3.412,  0.414
 66240,  5.278, 12.546, 19.102,  3.465,  0.412
 66300,  5.212, 12.335, 20.165,  3.475,  0.491
 66360,  5.112, 12.425, 20.389,  3.513,  0.434
 66420,  5.079, 12.526, 20.741,  3.483,  0.432
 66480,  5.190, 12.051, 20.918,  3.354,  0.490
 66540,  5.286, 11.412, 20.695,  3.466,  0.469
 66600,  5.268, 11.928, 20.168,  3.460,  0.438
 66660,  5.288, 13.201, 21.554,  3.500,  0.534
 66720,  5.433, 12.614, 20.646,  3.395,  0.533
 66780,  5.548, 12.818, 21.648,  3.489,  0.590
 66840,  5.610, 13.081, 22.723,  3.485,  0.621
 66900,  5.718, 13.281, 21.510,  3.583,  0.603
 66960,  5.811, 12.158, 20.627,  3.732,  0.543
 67020, -9999.000, -9999.000, -9999.000, -9999.000, -9999.000
 67080,  5.691, 12.332, 19.001,  3.372,  0.434
 67140,  5.787, 12.943, 21.411,  3.568,  0.458
 67200,  6.073, 14.479, 22.694,  3.852,  0.585
 67260,  6.099, 14.921, 23.789,  3.744,  0.552
 67320,  6.092, 15.237, 24.921,  3.566,  0.516
 67380,  5.847, 14.227, 26.638,  3.663,  0.513
 67440,  5.614, 13.466, 27.075,  3.570,  0.517
 67500,  5.662, 14.972, 27.978,  3.534,  0.483
 67560,  5.647, 13.738, 28.055,  3.613,  0.519
 67620,  5.525, 13.803, 28.573,  3.366,  0.453
 67680,  5.540, 13.964, 27.967,  3.483,  0.545
 67740,  5.173, 13.024, 27.709,  3.390,  0.515
 67800,  5.050, 13.196, 28.099,  3.334,  0.482
 67860,  5.187, 12.938, 29.278,  3.401,  0.457
 67920,  5.248, 14.365, 30.037,  3.310,  0.518
 67980,  5.326, 13.987, 29.607,  3.522,  0.462
 68040,  5.418, 14.267, 29.862,  3.681,  0.551
 68100,  5.499, 14.457, 29.945,  3.628,  0.515
 68160,  5.347, 13.249, 29.184,  3.455,  0.502
 68220,  5.078, 11.818, 27.466,  3.471,  0.482
 68280,  4.676, 11.219, 26.784,  3.474,  0.513
 68340,  4.183,  9.809, 25.330,  3.341,  0.486
 68400,  4.098,  9.783, 24.984,  3.290,  0.515
 68460,  4.098,  9.367, 24.256,  3.172,  0.494
 68520,  4.172,  9.382, 24.119,  3.250,  0.412
 68580,  4.307, 10.160, 25.183,  3.316,  0.541
 68640,  4.281, 11.116, 25.140,  3.179,  0.494
 68700,  4.175, 11.274, 25.959,  3.170,  0.525
 68760,  4.056, 10.041, 25.636,  3.123,  0.459
 68820,  4.082,  9.818, 25.014,  3.420,  0.453
 68880, -9999.000, -9999.000, -9999.000, -9999.000, -9999.000
 68940,  3.910,  9.921, 23.008,  3.222,  0.405
 69000,  3.739,  9.586, 23.266,  3.209,  0.334
 69060,  3.689,  9.651, 23.788,  3.079,  0.438
 69120,  3.639,  9.607, 22.666,  3.010,  0.386
 69180,  3.581, 10.048, 22.730,  2.973,  0.438
 69240,  3.685, 10.506, 23.826,  3.082,  0.429
 69300,  3.698, 10.306, 23.730,  3.285,  0.455
 69360,  3.540, 10.510, 24.804,  3.195,  0.462
 69420,  3.454, 10.505, 23.868,  3.173,  0.438
 69480,  3.566, 10.749, 24.842,  3.281,  0.421
 69540,  3.567, 10.553, 24.686,  3.041,  0.417
 69600,  3.567, 11.190, 25.033,  3.137,  0.417
 69660,  3.549, 11.227, 25.164,  3.152,  0.416
 69720,  3.524, 11.183, 25.248,  3.217,  0.431
 69780,  3.389, 10.986, 25.488,  3.353,  0.451
 69840,  3.428, 10.822, 23.658,  3.180,  0.381
 69900,  3.520, 10.712, 24.345,  3.295,  0.438
 69960,  3.632, 12.061, 24.155,  3.436,  0.462
 70020,  3.825, 12.400, 24.035,  3.387,  0.520
 70080,  4.091, 13.842, 26.701,  3.756,  0.488
 70140,  4.384, 15.052, 30.099,  4.056,  0.570
 70200,  4.273, 14.556, 28.576,  3.780,  0.568
 70260,  4.221, 14.131, 26.915,  3.734,  0.556
 70320,  4.006, 13.002, 26.378,  3.564,  0.500
 70380,  4.016, 13.377, 26.628,  3.580,  0.440
 70440,  4.040, 12.551, 25.136,  3.671,  0.462
 70500,  4.166, 12.899, 23.426,  3.506,  0.496
 70560,  4.217, 13.178, 23.476,  3.508,  0.435
 70620,  4.086, 12.890, 24.430,  3.502,  0.482
 70680,  4.040, 12.397, 24.481,  3.205,  0.534
 70740, -9999.000, -9999.000, -9999.000, -9999.000, -9999.000
 70800,  3.770, 10.352, 19.692,  3.500,  0.389
 70860,  3.855, 11.005, 20.928,  3.400,  0.461
 70920,  3.768, 10.103, 20.452,  3.468,  0.493
 70980,  3.771,  9.814, 20.067,  3.364,  0.512
 71040,  3.801, 10.718, 20.818,  3.359,  0.420
 71100,  3.673,  9.895, 19.736,  3.282,  0.455
 71160,  3.544,  8.166, 18.139,  3.277,  0.413
 71220,  3.496,  7.929, 18.662,  3.307,  0.432
 71280,  3.564,  8.166, 18.432,  3.237,  0.451
 71340,  3.507,  7.452, 18.692,  3.395,  0.449
 71400,  3.567,  8.489, 18.348,  3.441,  0.468
 71460,  3.703,  8.454, 17.707,  3.378,  0.379
 71520,  3.810,  8.631, 18.357,  3.387,  0.435
 71580,  3.890,  9.761, 18.748,  3.522,  0.469
 71640,  4.037, 10.182, 18.924,  3.517,  0.519
 71700,  4.299, 10.057, 20.552,  3.650,  0.488
 71760,  4.332, 10.831, 21.279,  3.618,  0.558
 71820,  4.353, 10.147, 21.154,  3.819,  0.495
 71880,  4.238, 10.111, 22.137,  3.774,  0.502
 71940,  4.131,  9.726, 22.342,  3.651,  0.491
 72000,  4.204,  9.527, 23.203,  3.810,  0.454
 72060,  4.192,  9.824, 23.817,  3.783,  0.506
 72120,  4.073,  9.318, 23.178,  3.672,  0.480
 72180,  3.930,  9.138, 24.108,  3.678,  0.438
 72240,  3.920,  9.205, 23.727,  3.653,  0.474
 72300,  3.794,  8.510, 23.344,  3.447,  0.443
 72360,  3.610,  8.006, 22.562,  3.410,  0.484
 72420,  3.629,  7.952, 22.715,  3.347,  0.457
 72480,  3.589,  8.052, 21.693,  3.308,  0.438
 72540,  3.402,  7.093, 20.057,  2.922,  0.426
 72600,  3.337,  7.656, 19.821,  3.023,  0.666
 72660,  3.327,  7.256, 19.280,  3.178,  0.475
 72720,  3.239,  6.552, 18.354,  3.153,  0.492
 72780,  3.205,  6.172, 17.632,  3.054,  0.392
 72840,  3.210,  6.066, 18.889,  3.171,  0.413
 72900,  3.294,  6.155, 17.981,  3.010,  0.362
 72960,  3.302,  6.248, 19.140,  3.227,  0.464
 73020,  3.320,  6.488, 20.207,  3.351,  0.439
 73080,  3.414,  6.470, 18.589,  3.289,  0.439
 73140,  3.489,  6.499, 19.851,  3.234,  0.428
 73200,  3.392,  6.545, 19.794,  3.219,  0.472
 73260,  3.403,  6.422, 19.816,  3.289,  0.434
 73320,  3.393,  6.456, 19.828,  3.079,  0.371
 73380,  3.217,  6.008, 19.363,  3.243,  0.475
 73440,  3.146,  6.046, 19.787,  3.083,  0.380
 73500,  3.170,  6.394, 19.623,  3.203,  0.469
 73560,  3.081,  6.314, 19.405,  3.113,  0.391
 73620,  3.077,  6.046, 19.246,  3.137,  0.462
 73680,  2.906,  5.512, 18.013,  2.947,  0.357
 73740,  2.852,  5.591, 18.413,  3.010,  0.442
 73800,  2.870,  5.499, 18.307,  2.921,  0.351
 73860,  3.001,  5.461, 18.789,  3.007,  0.382
 73920,  3.020,  5.743, 19.149,  2.802,  0.362
 73980,  3.007,  5.731, 18.622,  3.049,  0.327
 74040,  2.973,  5.500, 18.886,  3.125,  0.384
 74100,  2.976,  5.761, 19.253,  3.046,  0.303
 74160,  2.996,  5.595, 18.968,  3.080,  0.321
 74220,  3.010,  5.400, 19.456,  3.093,  0.319
 74280,  3.037,  5.650, 18.773,  2.997,  0.318
 74340,  2.994,  5.371, 19.110,  3.109,  0.305
 74400,  3.047,  5.406, 19.152,  3.289,  0.334
 74460,  2.733,  5.661, 16.789,  3.031,  0.240
 74520,  2.756,  5.179, 17.732,  3.127,  0.258
 74580,  2.715,  5.276, 19.392,  3.030,  0.310
 74640,  2.698,  4.846, 19.336,  3.042,  0.276
 74700,  2.703,  4.989, 19.326,  3.155,  0.304
 74760,  2.546,  5.281, 20.056,  2.894,  0.327
 74820,  2.667,  5.156, 19.937,  3.058,  0.252
 74880,  2.645,  4.914, 19.922,  2.800,  0.279
 74940,  2.646,  4.626, 19.823,  2.997,  0.280
 75000,  2.553,  4.418, 19.913,  2.840,  0.336
 75060,  2.216,  3.836, 18.641,  2.988,  0.277
 75120,  1.998,  3.122, 17.439,  2.535,  0.255
 75180,  1.907,  3.107, 16.932,  2.504,  0.216
 75240,  1.789,  2.850, 16.323,  2.435,  0.193
 75300,  1.777,  2.936, 16.082,  2.406,  0.221
 75360,  1.781,  2.497, 16.234,  2.428,  0.219
 75420,  1.730,  2.678, 16.761,  2.392,  0.186
 75480,  1.739,  2.754, 16.763,  2.365,  0.263
 75540,  1.702,  2.620, 16.259,  2.421,  0.255
 75600,  1.681,  2.633, 16.842,  2.290,  0.236
 75660,  1.643,  2.421, 16.357,  2.253,  0.219
 75720,  1.655,  2.335, 16.456,  2.243,  0.246
 75780,  1.594,  2.244, 15.749,  2.339,  0.216
 75840,  1.607,  2.232, 16.905,  2.356,  0.206
 75900,  1.682,  2.354, 17.593,  2.561,  0.273
 75960,  1.683,  2.191, 17.711,  2.524,  0.223
 76020,  1.746,  2.170, 18.260,  2.618,  0.247
 76080,  1.832,  2.437, 19.418,  2.742,  0.285
 76140,  1.832,  2.323, 20.734,  2.868,  0.293
 76200,  1.925,  2.313, 21.781,  3.173,  0.277
 76260,  1.857,  2.428, 21.128,  3.207,  0.285
 76320,  2.005,  2.325, 21.938,  3.199,  0.328
 76380,  2.076,  2.310, 23.455,  3.530,  0.372
 76440,  2.181,  2.693, 26.240,  3.674,  0.365
 76500,  2.157,  2.641, 27.991,  3.793,  0.445
 76560,  2.077,  2.672, 28.651,  3.715,  0.533
 76620,  1.958,  2.301, 26.560,  3.607,  0.560
 76680,  1.868,  2.197, 25.984,  3.459,  0.528
 76740,  1.939,  2.362, 25.802,  3.542,  0.437
 76800,  1.951,  2.596, 26.081,  3.549,  0.589
 76860,  1.924,  2.485, 25.710,  3.542,  0.722
 76920,  1.959,  2.432, 26.208,  3.507,  0.851
 76980,  1.850,  2.433, 24.679,  3.224,  0.669
 77040,  1.643,  2.269, 21.983,  2.796,  0.582
 77100,  1.465,  1.940, 19.148,  2.404,  0.442
 77160,  1.345,  1.904, 16.791,  2.075,  0.368
 77220,  1.275,  1.691, 15.475,  1.991,  0.325
 77280,  1.255,  1.864, 15.080,  1.920,  0.338
 77340,  1.231,  1.689, 14.990,  1.810,  0.446
 77400,  1.190,  1.731, 13.755,  1.636,  0.324
 77460,  1.060,  1.572, 11.957,  1.553,  0.323
 77520,  0.898,  1.518, 12.492,  1.324,  0.259
 77580,  0.858,  1.599, 12.956,  1.339,  0.293
 77640,  0.842,  1.664, 14.229,  1.298,  0.373
 77700,  0.805,  1.668, 12.950,  1.077,  0.304
 77760,  0.789,  1.729, 13.146,  1.111,  0.336
 77820,  0.771,  1.642, 12.408,  1.110,  0.345
 77880,  0.755,  1.733, 11.492,  1.210,  0.409
 77940,  0.827,  1.609, 12.903,  1.196,  0.388
 78000,  0.776,  1.714, 11.789,  1.092,  0.411
 78060,  0.722,  1.918, 10.502,  1.089,  0.408
 78120, -9999.000, -9999.000, -9999.000, -9999.000, -9999.000
 78180,  0.757,  1.716,  8.492,  0.961,  0.404
 78240,  0.734,  1.447,  8.099,  1.013,  0.348
 78300,  0.677,  1.642,  7.478,  1.117,  0.407
 78360,  0.647,  1.616,  6.580,  0.967,  0.485
 78420,  0.567,  1.794,  4.736,  0.809,  0.452
 78480,  0.467,  1.680,  3.887,  0.796,  0.458
 78540,  0.618,  1.611,  5.226,  0.941,  0.514
 78600,  0.755,  1.496,  6.204,  1.094,  0.498
 78660,  0.719,  1.546,  5.191,  1.214,  0.456
 78720,  0.792,  1.777,  5.722,  1.243,  0.552
 78780,  0.833,  1.765,  7.323,  1.303,  0.546
 78840,  0.800,  1.502,  6.920,  1.274,  0.505
 78900,  0.819,  1.589,  6.137,  1.304,  0.494
 78960,  0.772,  1.554,  5.514,  1.264,  0.480
 79020,  0.820,  1.556,  5.736,  1.301,  0.449
 79080,  0.767,  1.481,  5.816,  1.211,  0.408
 79140,  0.717,  1.634,  5.187,  1.121,  0.472
 79200,  0.699,  1.473,  4.425,  1.074,  0.379
 79260,  0.792,  1.725,  4.263,  1.224,  0.490
 79320,  0.859,  1.512,  6.028,  1.383,  0.491
 79380,  0.784,  1.516,  5.167,  1.384,  0.488
 79440,  0.795,  1.573,  5.082,  1.257,  0.472
 79500,  0.776,  1.526,  5.883,  1.367,  0.517
 79560,  0.769,  1.517,  5.782,  1.362,  0.483
 79620,  0.759,  1.479,  6.066,  1.349,  0.484
 79680,  0.689,  1.590,  5.399,  1.163,  0.391
 79740,  0.742,  1.367,  5.768,  1.220,  0.398
 79800,  0.783,  1.371,  6.723,  1.327,  0.390
 79860,  0.738,  1.438,  6.176,  1.281,  0.401
 79920,  0.770,  1.288,  6.294,  1.246,  0.334
 79980, -9999.000, -9999.000, -9999.000, -9999.000, -9999.000
 80040,  0.770,  1.604,  6.409,  1.186,  0.330
 80100,  0.758,  1.417,  6.930,  1.270,  0.421
 80160,  0.692,  1.421,  5.517,  1.187,  0.343
 80220,  0.678,  1.335,  5.501,  1.132,  0.346
 80280,  0.691,  1.291,  5.978,  1.193,  0.415
 80340,  0.743,  1.441,  6.416,  1.312,  0.430
 80400,  0.791,  1.349,  6.300,  1.303,  0.387
 80460,  0.757,  1.349,  6.036,  1.153,  0.390
 80520,  0.774,  1.413,  6.075,  1.288,  0.454
 80580,  0.759,  1.533,  6.874,  1.362,  0.482
 80640,  0.779,  1.446,  6.627,  1.255,  0.481
 80700,  0.711,  1.515,  4.933,  1.148,  0.489
 80760,  0.653,  1.371,  4.828,  1.092,  0.442
 80820,  0.634,  1.522,  5.020,  1.073,  0.437
 80880,  0.600,  1.253,  4.643,  1.086,  0.479
 80940,  0.638,  1.339,  4.888,  1.003,  0.462
 81000,  0.659,  1.288,  4.977,  1.125,  0.481
 81060,  0.720,  1.400,  5.768,  1.278,  0.422
 81120,  0.724,  1.415,  6.206,  1.499,  0.438
 81180,  0.685,  1.665,  5.283,  1.703,  0.439
 81240,  0.738,  1.524,  6.084,  1.856,  0.504
 81300,  0.758,  1.632,  6.534,  1.975,  0.422
 81360,  0.758,  1.587,  6.834,  2.060,  0.427
 81420,  0.729,  1.626,  6.255,  1.814,  0.416
 81480,  0.785,  1.515,  6.590,  1.537,  0.405
 81540,  0.782,  1.374,  6.026,  1.306,  0.393
 81600,  0.797,  1.187,  6.687,  1.351,  0.375
 81660,  0.761,  1.264,  7.027,  1.354,  0.375
 81720,  0.753,  1.262,  6.233,  1.270,  0.380
 81780,  0.685,  1.152,  5.244,  1.153,  0.409
 81840, -9999.000, -9999.000, -9999.000, -9999.000, -9999.000
 81900,  0.714,  1.531,  6.292,  1.178,  0.368
 81960,  0.703,  1.510,  5.563,  1.166,  0.390
 82020,  0.678,  1.420,  4.700,  1.196,  0.365
 82080,  0.644,  1.259,  5.212,  1.174,  0.378
 82140,  0.638,  1.421,  5.003,  1.170,  0.374
 82200,  0.636,  1.172,  4.739,  1.138,  0.325
 82260,  0.600,  1.356,  4.008,  1.059,  0.356
 82320,  0.664,  1.388,  4.404,  1.091,  0.351
 82380,  0.669,  1.259,  4.965,  1.151,  0.384
 82440,  0.648,  1.403,  4.933,  1.155,  0.348
 82500,  0.668,  1.097,  4.742,  1.103,  0.353
 82560,  0.649,  1.121,  4.633,  1.098,  0.354
 82620,  0.639,  0.998,  4.384,  1.025,  0.300
 82680,  0.657,  0.991,  4.672,  1.096,  0.310
 82740,  0.643,  0.992,  4.357,  0.995,  0.265
 82800,  0.632,  1.129,  4.781,  0.974,  0.269
 82860,  0.645,  1.080,  4.964,  1.021,  0.231
 82920,  0.592,  1.163,  4.256,  1.011,  0.291
 82980,  0.606,  0.836,  3.595,  0.853,  0.263
 83040,  0.615,  1.297,  4.459,  0.951,  0.295
 83100,  0.626,  1.125,  4.599,  0.956,  0.263
 83160,  0.615,  1.007,  4.235,  0.948,  0.282
 83220,  0.600,  1.000,  3.635,  1.002,  0.230
 83280,  0.619,  1.127,  4.221,  0.999,  0.244
 83340,  0.599,  1.097,  4.419,  0.963,  0.225
 83400,  0.600,  1.114,  4.058,  0.959,  0.227
 83460,  0.595,  1.087,  3.665,  0.975,  0.262
 83520,  0.578,  0.998,  4.088,  0.966,  0.257
 83580,  0.585,  1.115,  4.193,  0.896,  0.282
 83640,  0.583,  1.093,  3.879,  0.858,  0.227
 83700,  0.585,  1.107,  4.295,  0.949,  0.292
 83760,  0.549,  1.188,  3.800,  0.851,  0.222
 83820,  0.538,  1.111,  3.166,  0.879,  0.255
 83880,  0.534,  1.071,  3.934,  0.917,  0.281
 83940,  0.544,  1.085,  4.040,  0.945,  0.276
 84000,  0.519,  1.155,  3.997,  0.851,  0.226
 84060,  0.510,  1.168,  3.276,  0.806,  0.201
 84120,  0.563,  1.244,  3.811,  0.845,  0.210
 84180,  0.526,  1.168,  4.620,  0.808,  0.236
 84240,  0.496,  1.113,  3.903,  0.794,  0.236
 84300,  0.491,  1.116,  3.032,  0.778,  0.230
 84360,  0.488,  1.151,  3.644,  0.852,  0.255
 84420,  0.478,  1.237,  3.482,  0.876,  0.289
 84480,  0.506,  1.143,  3.227,  0.826,  0.271
 84540,  0.515,  1.307,  3.332,  0.902,  0.294
 84600,  0.494,  1.252,  3.742,  0.897,  0.285
 84660,  0.468,  1.232,  3.028,  0.820,  0.282
 84720,  0.494,  1.179,  3.360,  0.808,  0.301
 84780,  0.526,  1.098,  3.302,  0.749,  0.348
 84840,  0.470,  1.292,  3.571,  0.813,  0.310
 84900,  0.488,  1.110,  3.454,  0.813,  0.299
 84960,  0.499,  1.192,  3.549,  0.862,  0.261
 85020,  0.513,  1.227,  3.780,  0.881,  0.267
 85080,  0.486,  1.325,  3.816,  0.967,  0.306
 85140,  0.489,  1.337,  3.699,  0.927,  0.324
 85200,  0.480,  1.193,  3.429,  1.044,  0.291
 85260,  0.494,  1.165,  4.134,  0.869,  0.311
 85320,  0.492,  1.190,  3.643,  0.847,  0.307
 85380,  0.464,  1.236,  3.600,  0.842,  0.296
 85440,  0.477,  1.369,  3.797,  0.793,  0.296
 85500, -9999.000, -9999.000, -9999.000, -9999.000, -9999.000
 85560,  0.474,  1.318,  3.924,  0.874,  0.293
 85620,  0.498,  1.095,  3.773,  0.871,  0.303
 85680,  0.471,  1.276,  4.056,  0.823,  0.255
 85740,  0.477,  1.064,  4.243,  0.821,  0.281
 85800,  0.476,  1.146,  3.853,  0.923,  0.262
 85860,  0.463,  1.209,  3.807,  0.830,  0.327
 85920,  0.462,  1.186,  3.941,  0.864,  0.258
 85980,  0.501,  1.170,  4.174,  0.799,  0.322
 86040,  0.477,  1.138,  4.030,  0.774,  0.256
 86100,  0.498,  1.116,  4.206,  0.819,  0.252
 86160,  0.488,  1.256,  4.292,  0.852,  0.263
 86220,  0.495,  1.171,  4.525,  0.776,  0.212
 86280,  0.493,  1.289,  4.113,  0.846,  0.281
 86340,  0.492,  0.963,  3.682,  0.796,  0.256
