34, 1001
Carrie Womack
NOAA Chemical Sciences Laboratory
2B Tech O3 UV Analyzer
USOS
1, 1
2024, 08, 06, 2024, 12, 21
60
Time_Start, seconds_past_midnight, Seconds from midnight UTC
1
1
-9999
O3_ppb, ppb, Ozone from 2B Tech UV Analyzer
1
SPECIAL COMMENTS:
18
PI_CONTACT_INFO: Address: 325 Broadway R/CSL7, Boulder, CO, 80305
PLATFORM: CSL Mobile Lab
LOCATION: Salt Lake City, UT
ASSOCIATED_DATA: N/A
INSTRUMENT_INFO: N/A
DATA_INFO: Units:
UNCERTAINTY: N/A
ULOD_FLAG: -7777
ULOD_VALUE: N/A
LLOD_FLAG: -8888
LLOD_VALUE: N/A
DM_CONTACT_INFO: Data Manager: Nate Howard
PROJECT_INFO: 
STIPULATIONS_ON_USE: Use of these data require prior ok from PI.
OTHER_COMMENTS: N/A
REVISION: R0
R0: Final data. RA: Preliminary Data.  For in-field use only.
Time_Start, O3_ppb
0.0,63.7
60.0,64.0
120.0,65.3
180.0,64.9
240.0,65.4
300.0,64.6
360.0,65.2
420.0,59.0
480.0,63.9
540.0,65.9
600.0,63.3
660.0,64.5
720.0,65.5
780.0,67.2
840.0,66.9
900.0,63.8
960.0,61.3
1020.0,62.4
1080.0,63.8
1140.0,64.4
1200.0,67.4
1260.0,65.8
1320.0,63.7
1380.0,66.7
1440.0,65.9
1500.0,66.6
1560.0,64.1
1620.0,67.7
1680.0,66.6
1740.0,67.1
1800.0,66.8
1860.0,66.5
1920.0,65.4
1980.0,64.9
2040.0,65.0
2100.0,63.7
2160.0,63.0
2220.0,65.4
2280.0,65.8
2340.0,61.8
2400.0,61.9
2460.0,60.5
2520.0,60.2
2580.0,59.4
2640.0,61.4
2700.0,60.7
2760.0,58.2
2820.0,58.3
2880.0,59.1
2940.0,58.8
3000.0,58.2
3060.0,58.4
3120.0,58.9
3180.0,58.0
3240.0,58.7
3300.0,58.5
3360.0,57.2
3420.0,57.8
3480.0,58.1
3540.0,56.5
3600.0,57.3
3660.0,57.6
3720.0,57.1
3780.0,56.0
3840.0,58.2
3900.0,56.1
3960.0,57.1
4020.0,55.1
4080.0,55.8
4140.0,57.4
4200.0,57.5
4260.0,56.5
4320.0,57.8
4380.0,57.3
4440.0,57.3
4500.0,57.0
4560.0,57.5
4620.0,56.8
4680.0,57.2
4740.0,58.1
4800.0,57.4
4860.0,57.1
4920.0,59.8
4980.0,58.1
5040.0,58.1
5100.0,58.4
5160.0,58.9
5220.0,58.4
5280.0,57.3
5340.0,57.5
5400.0,56.0
5460.0,57.8
5520.0,57.9
5580.0,57.7
5640.0,58.4
5700.0,58.0
5760.0,57.5
5820.0,57.8
5880.0,58.0
5940.0,57.2
6000.0,57.8
6060.0,56.7
6120.0,58.0
6180.0,57.7
6240.0,58.8
6300.0,58.3
6360.0,58.7
6420.0,59.7
6480.0,60.3
6540.0,61.7
6600.0,61.3
6660.0,60.9
6720.0,61.1
6780.0,60.4
6840.0,60.5
6900.0,56.3
6960.0,56.3
7020.0,55.4
7080.0,56.0
7140.0,57.6
7200.0,59.0
7260.0,59.3
7320.0,59.3
7380.0,57.3
7440.0,57.7
7500.0,57.1
7560.0,57.4
7620.0,58.0
7680.0,55.9
7740.0,56.7
7800.0,55.3
7860.0,55.1
7920.0,55.7
7980.0,55.5
8040.0,54.0
8100.0,55.5
8160.0,54.5
8220.0,54.7
8280.0,55.3
8340.0,54.0
8400.0,55.3
8460.0,55.6
8520.0,54.6
8580.0,57.2
8640.0,54.3
8700.0,52.8
8760.0,52.5
8820.0,55.6
8880.0,53.6
8940.0,54.3
9000.0,53.7
9060.0,53.2
9120.0,54.0
9180.0,53.9
9240.0,54.2
9300.0,54.0
9360.0,53.4
9420.0,51.2
9480.0,51.1
9540.0,52.9
9600.0,52.4
9660.0,53.3
9720.0,52.8
9780.0,53.3
9840.0,51.9
9900.0,52.5
9960.0,53.1
10020.0,52.7
10080.0,51.6
10140.0,52.4
10200.0,51.6
10260.0,50.9
10320.0,50.9
10380.0,51.5
10440.0,52.2
10500.0,52.6
10560.0,51.9
10620.0,52.0
10680.0,51.3
10740.0,51.9
10800.0,51.4
10860.0,51.7
10920.0,52.3
10980.0,51.7
11040.0,52.2
11100.0,51.9
11160.0,51.7
11220.0,52.6
11280.0,50.9
11340.0,53.1
11400.0,50.5
11460.0,49.5
11520.0,50.6
11580.0,50.5
11640.0,52.6
11700.0,52.4
11760.0,51.8
11820.0,51.8
11880.0,50.5
11940.0,51.8
12000.0,50.7
12060.0,51.1
12120.0,49.4
12180.0,49.4
12240.0,51.1
12300.0,51.1
12360.0,51.9
12420.0,51.4
12480.0,51.0
12540.0,51.8
12600.0,51.5
12660.0,51.0
12720.0,52.0
12780.0,51.3
12840.0,51.0
12900.0,51.8
12960.0,52.0
13020.0,51.4
13080.0,51.0
13140.0,49.5
13200.0,46.6
13260.0,45.0
13320.0,48.8
13380.0,49.7
13440.0,48.0
13500.0,48.3
13560.0,50.3
13620.0,49.9
13680.0,50.2
13740.0,50.5
13800.0,51.9
13860.0,51.8
13920.0,50.6
13980.0,49.1
14040.0,49.4
14100.0,50.0
14160.0,49.9
14220.0,48.9
14280.0,48.4
14340.0,48.8
14400.0,48.0
14460.0,49.8
14520.0,49.6
14580.0,51.5
14640.0,51.2
14700.0,51.2
14760.0,51.2
14820.0,51.0
14880.0,51.0
14940.0,50.6
15000.0,50.3
15060.0,50.4
15120.0,48.8
15180.0,48.3
15240.0,47.8
15300.0,48.9
15360.0,47.7
15420.0,50.2
15480.0,49.4
15540.0,50.8
15600.0,49.8
15660.0,51.8
15720.0,50.6
15780.0,53.1
15840.0,51.5
15900.0,51.9
15960.0,51.8
16020.0,52.7
16080.0,52.7
16140.0,51.6
16200.0,52.4
16260.0,51.7
16320.0,52.7
16380.0,52.9
16440.0,53.0
16500.0,52.2
16560.0,52.7
16620.0,51.7
16680.0,52.5
16740.0,52.2
16800.0,52.0
16860.0,51.3
16920.0,52.3
16980.0,50.4
17040.0,50.3
17100.0,51.2
17160.0,50.9
17220.0,51.4
17280.0,51.6
17340.0,50.8
17400.0,48.0
17460.0,49.5
17520.0,50.3
17580.0,50.5
17640.0,51.1
17700.0,50.2
17760.0,49.9
17820.0,49.7
17880.0,49.5
17940.0,49.7
18000.0,49.0
18060.0,49.7
18120.0,50.6
18180.0,50.3
18240.0,51.1
18300.0,49.6
18360.0,50.3
18420.0,49.6
18480.0,50.4
18540.0,50.3
18600.0,49.4
18660.0,50.0
18720.0,50.7
18780.0,48.0
18840.0,50.7
18900.0,49.8
18960.0,49.2
19020.0,51.1
19080.0,50.1
19140.0,52.3
19200.0,50.5
19260.0,52.0
19320.0,52.3
19380.0,50.2
19440.0,50.6
19500.0,51.9
19560.0,51.3
19620.0,50.2
19680.0,51.2
19740.0,50.7
19800.0,49.2
19860.0,47.0
19920.0,47.9
19980.0,49.0
20040.0,50.4
20100.0,50.0
20160.0,49.6
20220.0,50.7
20280.0,50.9
20340.0,50.8
20400.0,51.3
20460.0,50.1
20520.0,49.4
20580.0,47.8
20640.0,50.1
20700.0,51.5
20760.0,51.4
20820.0,50.4
20880.0,50.1
20940.0,50.5
21000.0,50.7
21060.0,50.1
21120.0,49.5
21180.0,50.0
21240.0,50.8
21300.0,50.0
21360.0,49.9
21420.0,50.1
21480.0,51.2
21540.0,50.7
21600.0,49.4
21660.0,49.5
21720.0,50.1
21780.0,50.2
21840.0,50.1
21900.0,49.6
21960.0,50.6
22020.0,50.5
22080.0,50.6
22140.0,50.1
22200.0,50.4
22260.0,51.0
22320.0,49.8
22380.0,50.2
22440.0,49.5
22500.0,49.8
22560.0,50.5
22620.0,49.9
22680.0,50.1
22740.0,50.4
22800.0,49.3
22860.0,50.3
22920.0,49.9
22980.0,50.2
23040.0,49.4
23100.0,49.5
23160.0,50.6
23220.0,51.2
23280.0,50.6
23340.0,50.6
23400.0,50.6
23460.0,51.4
23520.0,50.8
23580.0,50.6
23640.0,50.9
23700.0,50.1
23760.0,49.5
23820.0,50.5
23880.0,50.8
23940.0,50.3
24000.0,50.0
24060.0,50.6
24120.0,50.2
24180.0,50.4
24240.0,49.9
24300.0,50.3
24360.0,50.0
24420.0,49.0
24480.0,50.2
24540.0,50.2
24600.0,49.5
24660.0,51.0
24720.0,50.2
24780.0,50.0
24840.0,49.7
24900.0,49.4
24960.0,49.2
25020.0,49.2
25080.0,49.8
25140.0,49.4
25200.0,48.9
25260.0,50.3
25320.0,49.6
25380.0,49.7
25440.0,49.5
25500.0,49.5
25560.0,49.5
25620.0,50.0
25680.0,49.7
25740.0,50.0
25800.0,50.2
25860.0,49.6
25920.0,49.7
25980.0,48.3
26040.0,49.6
26100.0,49.5
26160.0,49.4
26220.0,49.3
26280.0,48.8
26340.0,50.2
26400.0,49.1
26460.0,49.1
26520.0,50.1
26580.0,49.6
26640.0,49.7
26700.0,50.1
26760.0,49.6
26820.0,49.7
26880.0,47.7
26940.0,49.4
27000.0,50.5
27060.0,49.9
27120.0,49.5
27180.0,48.6
27240.0,48.5
27300.0,48.5
27360.0,48.5
27420.0,50.0
27480.0,49.0
27540.0,48.3
27600.0,48.8
27660.0,48.3
27720.0,47.4
27780.0,48.0
27840.0,49.3
27900.0,48.6
27960.0,48.3
28020.0,49.0
28080.0,48.7
28140.0,49.0
28200.0,46.8
28260.0,45.8
28320.0,43.0
28380.0,42.7
28440.0,42.7
28500.0,43.1
28560.0,43.0
28620.0,43.3
28680.0,43.2
28740.0,42.0
28800.0,41.9
28860.0,41.7
28920.0,41.3
28980.0,41.3
29040.0,42.0
29100.0,41.9
29160.0,41.4
29220.0,43.7
29280.0,46.5
29340.0,44.3
29400.0,46.0
29460.0,48.1
29520.0,46.9
29580.0,49.2
29640.0,48.9
29700.0,47.3
29760.0,49.2
29820.0,48.6
29880.0,47.9
29940.0,46.8
30000.0,47.4
30060.0,48.1
30120.0,48.4
30180.0,47.7
30240.0,48.8
30300.0,47.4
30360.0,46.5
30420.0,46.2
30480.0,45.4
30540.0,43.8
30600.0,44.3
30660.0,43.3
30720.0,41.8
30780.0,42.6
30840.0,41.3
30900.0,40.8
30960.0,39.8
31020.0,39.8
31080.0,38.9
31140.0,40.0
31200.0,39.7
31260.0,40.6
31320.0,40.2
31380.0,41.3
31440.0,41.7
31500.0,41.8
31560.0,41.0
31620.0,41.6
31680.0,41.5
31740.0,42.1
31800.0,40.7
31860.0,41.0
31920.0,41.5
31980.0,39.3
32040.0,38.8
32100.0,40.1
32160.0,39.7
32220.0,39.8
32280.0,40.6
32340.0,40.5
32400.0,39.6
32460.0,39.1
32520.0,38.6
32580.0,38.8
32640.0,37.6
32700.0,38.0
32760.0,37.0
32820.0,36.9
32880.0,37.0
32940.0,38.1
33000.0,39.1
33060.0,36.7
33120.0,36.8
33180.0,36.8
33240.0,38.6
33300.0,36.3
33360.0,36.2
33420.0,35.2
33480.0,34.9
33540.0,33.6
33600.0,32.9
33660.0,32.6
33720.0,32.9
33780.0,35.2
33840.0,35.0
33900.0,35.2
33960.0,35.6
34020.0,34.3
34080.0,35.0
34140.0,34.4
34200.0,33.8
34260.0,33.9
34320.0,32.8
34380.0,34.2
34440.0,34.3
34500.0,34.7
34560.0,34.1
34620.0,33.9
34680.0,33.8
34740.0,35.5
34800.0,35.0
34860.0,35.0
34920.0,34.0
34980.0,35.4
35040.0,37.7
35100.0,40.5
35160.0,40.3
35220.0,42.4
35280.0,42.1
35340.0,45.9
35400.0,47.2
35460.0,45.5
35520.0,46.1
35580.0,46.9
35640.0,45.0
35700.0,46.3
35760.0,46.3
35820.0,46.2
35880.0,47.4
35940.0,46.6
36000.0,46.7
36060.0,46.1
36120.0,45.5
36180.0,44.8
36240.0,45.2
36300.0,45.3
36360.0,45.4
36420.0,45.2
36480.0,45.7
36540.0,45.2
36600.0,46.2
36660.0,46.0
36720.0,45.7
36780.0,45.5
36840.0,45.4
36900.0,45.3
36960.0,45.7
37020.0,45.1
37080.0,45.0
37140.0,45.1
37200.0,44.8
37260.0,44.8
37320.0,44.5
37380.0,45.4
37440.0,44.6
37500.0,44.2
37560.0,44.8
37620.0,44.7
37680.0,44.0
37740.0,43.8
37800.0,44.9
37860.0,44.7
37920.0,45.2
37980.0,44.4
38040.0,44.6
38100.0,44.8
38160.0,44.7
38220.0,44.2
38280.0,44.1
38340.0,44.1
38400.0,44.1
38460.0,44.6
38520.0,45.0
38580.0,43.5
38640.0,44.3
38700.0,44.7
38760.0,44.4
38820.0,44.5
38880.0,43.4
38940.0,44.4
39000.0,44.1
39060.0,44.6
39120.0,44.4
39180.0,44.6
39240.0,45.0
39300.0,45.3
39360.0,45.0
39420.0,44.9
39480.0,44.3
39540.0,43.2
39600.0,45.4
39660.0,44.7
39720.0,44.4
39780.0,44.7
39840.0,44.8
39900.0,43.9
39960.0,44.8
40020.0,43.8
40080.0,44.5
40140.0,43.5
40200.0,43.6
40260.0,44.4
40320.0,43.7
40380.0,43.3
40440.0,43.2
40500.0,44.1
40560.0,43.7
40620.0,43.0
40680.0,43.0
40740.0,43.1
40800.0,43.1
40860.0,44.0
40920.0,44.2
40980.0,42.4
41040.0,43.6
41100.0,43.7
41160.0,42.4
41220.0,42.8
41280.0,43.5
41340.0,43.9
41400.0,43.8
41460.0,43.6
41520.0,42.5
41580.0,42.6
41640.0,42.9
41700.0,43.2
41760.0,42.2
41820.0,42.3
41880.0,42.8
41940.0,42.3
42000.0,43.0
42060.0,43.4
42120.0,42.7
42180.0,43.1
42240.0,42.7
42300.0,42.6
42360.0,42.7
42420.0,43.3
42480.0,43.1
42540.0,44.5
42600.0,44.6
42660.0,44.0
42720.0,43.2
42780.0,44.4
42840.0,42.7
42900.0,45.2
42960.0,43.9
43020.0,43.9
43080.0,43.5
43140.0,43.8
43200.0,44.0
43260.0,43.2
43320.0,43.9
43380.0,43.0
43440.0,43.1
43500.0,43.5
43560.0,43.7
43620.0,42.7
43680.0,43.0
43740.0,44.3
43800.0,41.9
43860.0,42.6
43920.0,43.1
43980.0,43.3
44040.0,43.3
44100.0,42.5
44160.0,43.4
44220.0,43.8
44280.0,42.9
44340.0,43.4
44400.0,43.9
44460.0,43.7
44520.0,44.1
44580.0,44.0
44640.0,43.9
44700.0,43.7
44760.0,43.9
44820.0,42.5
44880.0,42.2
44940.0,42.8
45000.0,43.4
45060.0,43.5
45120.0,41.6
45180.0,43.0
45240.0,43.5
45300.0,44.3
45360.0,43.0
45420.0,43.2
45480.0,43.6
45540.0,42.2
45600.0,43.0
45660.0,42.9
45720.0,42.7
45780.0,43.0
45840.0,42.6
45900.0,42.1
45960.0,42.6
46020.0,42.7
46080.0,43.0
46140.0,43.1
46200.0,43.6
46260.0,42.2
46320.0,43.9
46380.0,42.5
46440.0,42.3
46500.0,41.6
46560.0,43.1
46620.0,43.0
46680.0,40.9
46740.0,43.9
46800.0,43.6
46860.0,42.5
46920.0,43.0
46980.0,43.8
47040.0,43.6
47100.0,43.2
47160.0,44.1
47220.0,43.7
47280.0,43.5
47340.0,42.6
47400.0,41.3
47460.0,43.3
47520.0,42.3
47580.0,43.5
47640.0,43.8
47700.0,44.9
47760.0,43.7
47820.0,43.6
47880.0,40.4
47940.0,39.2
48000.0,41.7
48060.0,43.8
48120.0,42.9
48180.0,43.1
48240.0,43.8
48300.0,43.3
48360.0,43.6
48420.0,44.0
48480.0,44.7
48540.0,43.0
48600.0,43.4
48660.0,43.6
48720.0,43.1
48780.0,43.2
48840.0,42.8
48900.0,42.8
48960.0,42.5
49020.0,42.4
49080.0,44.0
49140.0,43.7
49200.0,43.4
49260.0,40.1
49320.0,43.7
49380.0,45.0
49440.0,44.1
49500.0,43.1
49560.0,44.7
49620.0,44.9
49680.0,43.7
49740.0,43.9
49800.0,43.3
49860.0,42.3
49920.0,45.0
49980.0,41.6
50040.0,38.1
50100.0,40.8
50160.0,41.5
50220.0,40.1
50280.0,40.5
50340.0,38.8
50400.0,42.0
50460.0,44.5
50520.0,44.5
50580.0,43.7
50640.0,45.2
50700.0,45.5
50760.0,43.0
50820.0,43.9
50880.0,42.3
50940.0,40.4
51000.0,44.5
51060.0,45.2
51120.0,36.5
51180.0,45.6
51240.0,42.1
51300.0,41.6
51360.0,44.6
51420.0,42.3
51480.0,43.4
51540.0,41.0
51600.0,45.7
51660.0,45.3
51720.0,43.8
51780.0,44.1
51840.0,41.2
51900.0,43.5
51960.0,41.8
52020.0,44.6
52080.0,44.9
52140.0,44.8
52200.0,46.5
52260.0,46.2
52320.0,44.4
52380.0,43.4
52440.0,43.1
52500.0,40.7
52560.0,46.2
52620.0,46.5
52680.0,43.5
52740.0,42.9
52800.0,42.0
52860.0,42.8
52920.0,43.0
52980.0,43.0
53040.0,43.0
53100.0,42.5
53160.0,45.8
53220.0,42.5
53280.0,44.2
53340.0,43.8
53400.0,44.0
53460.0,44.2
53520.0,42.5
53580.0,43.5
53640.0,34.9
53700.0,32.7
53760.0,36.4
53820.0,39.7
53880.0,40.7
53940.0,38.9
54000.0,39.2
54060.0,36.3
54120.0,39.3
54180.0,45.9
54240.0,44.8
54300.0,44.1
54360.0,42.2
54420.0,43.4
54480.0,43.6
54540.0,44.6
54600.0,44.1
54660.0,39.6
54720.0,42.0
54780.0,41.9
54840.0,40.0
54900.0,41.7
54960.0,39.9
55020.0,43.3
55080.0,38.5
55140.0,42.4
55200.0,45.8
55260.0,45.8
55320.0,46.3
55380.0,45.3
55440.0,46.6
55500.0,46.3
55560.0,45.0
55620.0,48.0
55680.0,48.1
55740.0,46.1
55800.0,46.5
55860.0,43.0
55920.0,41.2
55980.0,43.2
56040.0,43.6
56100.0,40.1
56160.0,40.1
56220.0,39.0
56280.0,41.9
56340.0,39.7
56400.0,40.8
56460.0,46.5
56520.0,46.3
56580.0,46.9
56640.0,40.0
56700.0,43.0
56760.0,46.0
56820.0,46.3
56880.0,43.4
56940.0,40.4
57000.0,46.0
57060.0,43.3
57120.0,43.5
57180.0,43.6
57240.0,45.8
57300.0,47.0
57360.0,44.2
57420.0,44.0
57480.0,47.7
57540.0,46.1
57600.0,48.9
57660.0,50.1
57720.0,49.8
57780.0,50.0
57840.0,50.7
57900.0,45.4
57960.0,48.0
58020.0,50.6
58080.0,52.2
58140.0,50.6
58200.0,51.8
58260.0,52.8
58320.0,52.5
58380.0,53.1
58440.0,53.1
58500.0,51.7
58560.0,52.8
58620.0,53.4
58680.0,51.2
58740.0,50.8
58800.0,53.5
58860.0,53.0
58920.0,52.5
58980.0,50.5
59040.0,50.9
59100.0,53.7
59160.0,54.0
59220.0,52.5
59280.0,53.4
59340.0,53.9
59400.0,-9999.0
59460.0,-9999.0
59520.0,-9999.0
59580.0,-9999.0
59640.0,-9999.0
59700.0,-9999.0
59760.0,-9999.0
59820.0,-9999.0
59880.0,-9999.0
59940.0,-9999.0
60000.0,-9999.0
60060.0,-9999.0
60120.0,-9999.0
60180.0,-9999.0
60240.0,-9999.0
60300.0,-9999.0
60360.0,-9999.0
60420.0,-9999.0
60480.0,53.5
60540.0,54.1
60600.0,56.8
60660.0,58.3
60720.0,57.3
60780.0,57.0
60840.0,57.0
60900.0,57.4
60960.0,57.6
61020.0,57.5
61080.0,57.4
61140.0,56.5
61200.0,57.2
61260.0,57.6
61320.0,57.0
61380.0,57.4
61440.0,57.0
61500.0,55.9
61560.0,58.1
61620.0,59.5
61680.0,59.7
61740.0,58.1
61800.0,59.6
61860.0,59.7
61920.0,57.8
61980.0,55.6
62040.0,56.0
62100.0,58.9
62160.0,57.4
62220.0,57.5
62280.0,60.2
62340.0,61.0
62400.0,61.3
62460.0,60.3
62520.0,62.1
62580.0,60.1
62640.0,60.7
62700.0,61.2
62760.0,60.0
62820.0,59.8
62880.0,60.1
62940.0,63.3
63000.0,63.0
63060.0,62.2
63120.0,63.1
63180.0,61.7
63240.0,61.9
63300.0,63.5
63360.0,62.0
63420.0,62.2
63480.0,62.0
63540.0,60.4
63600.0,62.6
63660.0,64.5
63720.0,61.9
63780.0,64.2
63840.0,64.5
63900.0,62.5
63960.0,62.0
64020.0,61.8
64080.0,62.1
64140.0,63.4
64200.0,63.4
64260.0,65.4
64320.0,65.1
64380.0,64.7
64440.0,64.8
64500.0,61.3
64560.0,63.2
64620.0,62.7
64680.0,60.9
64740.0,59.4
64800.0,60.4
64860.0,57.8
64920.0,57.3
64980.0,59.5
65040.0,57.9
65100.0,54.0
65160.0,58.9
65220.0,60.1
65280.0,59.4
65340.0,56.8
65400.0,55.2
65460.0,54.4
65520.0,55.4
65580.0,54.8
65640.0,56.1
65700.0,54.5
65760.0,54.2
65820.0,53.1
65880.0,54.6
65940.0,54.9
66000.0,53.8
66060.0,55.5
66120.0,55.6
66180.0,55.0
66240.0,55.3
66300.0,55.6
66360.0,55.7
66420.0,56.9
66480.0,56.1
66540.0,56.5
66600.0,56.2
66660.0,55.3
66720.0,55.7
66780.0,54.8
66840.0,54.5
66900.0,56.0
66960.0,56.3
67020.0,55.8
67080.0,55.9
67140.0,55.9
67200.0,56.0
67260.0,55.1
67320.0,55.6
67380.0,56.1
67440.0,55.4
67500.0,56.4
67560.0,56.0
67620.0,57.3
67680.0,55.0
67740.0,54.7
67800.0,55.9
67860.0,55.1
67920.0,55.7
67980.0,55.4
68040.0,56.9
68100.0,57.4
68160.0,56.2
68220.0,55.8
68280.0,55.4
68340.0,56.3
68400.0,57.4
68460.0,56.0
68520.0,56.3
68580.0,55.3
68640.0,56.3
68700.0,54.3
68760.0,56.1
68820.0,52.1
68880.0,52.6
68940.0,55.6
69000.0,56.4
69060.0,57.6
69120.0,57.8
69180.0,59.0
69240.0,59.3
69300.0,58.6
69360.0,58.7
69420.0,59.0
69480.0,61.1
69540.0,58.2
69600.0,58.8
69660.0,58.8
69720.0,58.4
69780.0,57.5
69840.0,59.8
69900.0,60.6
69960.0,59.0
70020.0,60.2
70080.0,59.6
70140.0,59.7
70200.0,59.2
70260.0,59.3
70320.0,59.8
70380.0,59.1
70440.0,59.1
70500.0,58.7
70560.0,59.4
70620.0,60.8
70680.0,60.8
70740.0,59.0
70800.0,58.2
70860.0,60.4
70920.0,59.3
70980.0,61.4
71040.0,61.2
71100.0,59.6
71160.0,60.9
71220.0,60.7
71280.0,60.8
71340.0,60.8
71400.0,61.4
71460.0,61.1
71520.0,61.8
71580.0,62.0
71640.0,61.5
71700.0,61.5
71760.0,61.4
71820.0,61.1
71880.0,60.4
71940.0,60.2
72000.0,61.7
72060.0,62.0
72120.0,62.0
72180.0,60.9
72240.0,61.9
72300.0,61.4
72360.0,61.4
72420.0,61.1
72480.0,62.0
72540.0,61.3
72600.0,61.2
72660.0,61.3
72720.0,61.6
72780.0,61.7
72840.0,62.8
72900.0,63.4
72960.0,63.3
73020.0,62.7
73080.0,63.6
73140.0,65.2
73200.0,65.4
73260.0,66.2
73320.0,64.3
73380.0,66.6
73440.0,66.6
73500.0,66.6
73560.0,66.8
73620.0,67.2
73680.0,67.1
73740.0,65.8
73800.0,64.9
73860.0,65.0
73920.0,65.0
73980.0,61.8
74040.0,56.8
74100.0,66.7
74160.0,68.0
74220.0,67.2
74280.0,66.6
74340.0,66.1
74400.0,67.5
74460.0,68.5
74520.0,69.1
74580.0,68.3
74640.0,68.3
74700.0,68.3
74760.0,66.5
74820.0,66.3
74880.0,67.8
74940.0,67.9
75000.0,67.7
75060.0,68.0
75120.0,68.4
75180.0,69.3
75240.0,67.6
75300.0,69.3
75360.0,67.4
75420.0,68.7
75480.0,68.5
75540.0,68.1
75600.0,68.6
75660.0,69.0
75720.0,68.8
75780.0,68.3
75840.0,68.3
75900.0,67.2
75960.0,66.9
76020.0,68.0
76080.0,69.1
76140.0,69.0
76200.0,68.6
76260.0,69.1
76320.0,70.6
76380.0,70.6
76440.0,71.1
76500.0,72.4
76560.0,71.9
76620.0,72.1
76680.0,72.8
76740.0,72.5
76800.0,72.2
76860.0,72.7
76920.0,70.2
76980.0,69.4
77040.0,71.3
77100.0,69.0
77160.0,69.9
77220.0,70.6
77280.0,71.9
77340.0,70.6
77400.0,70.6
77460.0,71.5
77520.0,72.1
77580.0,72.1
77640.0,73.0
77700.0,72.2
77760.0,73.0
77820.0,71.3
77880.0,71.1
77940.0,73.1
78000.0,73.0
78060.0,73.1
78120.0,72.8
78180.0,76.1
78240.0,77.4
78300.0,77.2
78360.0,77.7
78420.0,77.6
78480.0,77.3
78540.0,77.3
78600.0,77.3
78660.0,77.6
78720.0,77.7
78780.0,79.1
78840.0,81.1
78900.0,80.7
78960.0,80.4
79020.0,79.2
79080.0,80.9
79140.0,83.0
79200.0,82.1
79260.0,80.3
79320.0,79.5
79380.0,81.6
79440.0,81.3
79500.0,80.7
79560.0,80.6
79620.0,81.8
79680.0,81.8
79740.0,81.9
79800.0,81.4
79860.0,81.5
79920.0,81.6
79980.0,80.2
80040.0,80.8
80100.0,79.8
80160.0,80.1
80220.0,78.9
80280.0,78.2
80340.0,79.0
80400.0,79.1
80460.0,78.7
80520.0,80.7
80580.0,81.8
80640.0,79.7
80700.0,78.5
80760.0,79.6
80820.0,77.7
80880.0,78.2
80940.0,78.4
81000.0,77.0
81060.0,73.5
81120.0,74.8
81180.0,74.6
81240.0,74.9
81300.0,75.1
81360.0,76.5
81420.0,77.0
81480.0,79.3
81540.0,76.7
81600.0,75.1
81660.0,73.9
81720.0,74.3
81780.0,73.5
81840.0,72.9
81900.0,72.3
81960.0,72.8
82020.0,71.5
82080.0,73.5
82140.0,75.6
82200.0,75.2
82260.0,73.8
82320.0,73.6
82380.0,73.5
82440.0,74.1
82500.0,75.2
82560.0,74.1
82620.0,72.8
82680.0,71.9
82740.0,71.1
82800.0,73.0
82860.0,71.8
82920.0,71.4
82980.0,71.2
83040.0,73.6
83100.0,71.6
83160.0,70.6
83220.0,69.3
83280.0,68.2
83340.0,69.0
83400.0,69.0
83460.0,67.9
83520.0,70.6
83580.0,71.1
83640.0,70.9
83700.0,69.7
83760.0,69.6
83820.0,68.8
83880.0,67.5
83940.0,67.8
84000.0,68.2
84060.0,70.7
84120.0,68.5
84180.0,70.2
84240.0,69.4
84300.0,69.1
84360.0,70.9
84420.0,72.4
84480.0,71.0
84540.0,71.3
84600.0,71.3
84660.0,69.7
84720.0,68.3
84780.0,66.5
84840.0,67.4
84900.0,65.5
84960.0,67.1
85020.0,67.2
85080.0,67.0
85140.0,65.4
85200.0,66.0
85260.0,66.7
85320.0,65.5
85380.0,67.3
85440.0,68.4
85500.0,67.0
85560.0,65.0
85620.0,64.6
85680.0,64.6
85740.0,62.7
85800.0,61.5
85860.0,63.3
85920.0,62.9
85980.0,61.8
86040.0,63.2
86100.0,63.6
86160.0,62.9
86220.0,63.5
86280.0,62.7
86340.0,62.5
