37, 1001
Michael A Robinson, Chris Jernigan, Subi Thakali
NOAA ESRL Chemical Sciences Laboratory and CIRES, U. of Colorado
NOAA Iodide CIMS Instrument
USOS
1, 1
2024, 08, 06, 2024, 08, 06
1
starttime_UTC, seconds_past_midnight, seconds_of_day_since_00:00:00_UTC
5
1, 1, 1, 1, 1
-9999, -9999, -9999, -9999, -9999
C4H7NO5_NOAACIMS, pptv, Gas_C4H7NO5_InSitu_S_AVMR, 
ISOPN_NOAACIMS, pptv, Gas_ISOPN_InSitu_S_AVMR, 
C5H10O3_NOAACIMS, pptv, Gas_C5H10O3_InSitu_S_AVMR, 
C5H9NO5_NOAACIMS, pptv, Gas_C5H9NO5_InSitu_S_AVMR, 
C10H17NO4_NOAACIMS, pptv, Gas_C10H17NO4_InSitu_S_AVMR, 
0
18
PI_CONTACT_INFO: 325 Broadway, R/CSD 7, Boulder, Colorado 80305; michael.a.robinson@noaa.gov; chris.jernigan@noaa.gov;
PLATFORM: NOAA CSL Mobile Lab
LOCATION: SLC, Utah
ASSOCIATED_DATA: 1Hz data also available on request.
INSTRUMENT_INFO: NOAA I- ToF CIMS
DATA_INFO: All data in parts per trillion by volume (pptv). 1 Hz data is available upon request.
UNCERTAINTY: TBD
ULOD_FLAG: -7777
ULOD_VALUE: N/A
LLOD_FLAG: -8888
LLOD_VALUE: N/A
DM_CONTACT_INFO: Nathan Howard; nathan.h.howard@noaa.gov
PROJECT_INFO: USOS, summer 2024. https://csl.noaa.gov/groups/csl7/measurements/2024usos/
STIPULATIONS_ON_USE: Users are strongly encouraged to contact the PI for proper data usage.
OTHER_COMMENTS: 
REVISION: RA
RA: Preliminary Data; For in-field use only
starttime_UTC, C4H7NO5_NOAACIMS, ISOPN_NOAACIMS, C5H10O3_NOAACIMS, C5H9NO5_NOAACIMS, C10H17NO4_NOAACIMS
     0, -9999.000, -9999.000, -9999.000, -9999.000, -9999.000
    60, -9999.000, -9999.000, -9999.000, -9999.000, -9999.000
   120, -9999.000, -9999.000, -9999.000, -9999.000, -9999.000
   180, -9999.000, -9999.000, -9999.000, -9999.000, -9999.000
   240, -9999.000, -9999.000, -9999.000, -9999.000, -9999.000
   300, -9999.000, -9999.000, -9999.000, -9999.000, -9999.000
   360, -9999.000, -9999.000, -9999.000, -9999.000, -9999.000
   420, -9999.000, -9999.000, -9999.000, -9999.000, -9999.000
   480, -9999.000, -9999.000, -9999.000, -9999.000, -9999.000
   540, -9999.000, -9999.000, -9999.000, -9999.000, -9999.000
   600, -9999.000, -9999.000, -9999.000, -9999.000, -9999.000
   660, -9999.000, -9999.000, -9999.000, -9999.000, -9999.000
   720, -9999.000, -9999.000, -9999.000, -9999.000, -9999.000
   780, -9999.000, -9999.000, -9999.000, -9999.000, -9999.000
   840, -9999.000, -9999.000, -9999.000, -9999.000, -9999.000
   900, -9999.000, -9999.000, -9999.000, -9999.000, -9999.000
   960,  3.912, 22.235, 75.085,  1.957,  0.445
  1020,  4.558, 22.664, 75.316,  1.678,  0.540
  1080,  4.986, 26.377, 81.004,  1.687,  0.602
  1140,  4.758, 19.344, 85.906,  2.835,  0.429
  1200,  4.619, 18.037, 76.627,  2.504,  0.445
  1260,  4.466, 18.361, 72.119,  2.707,  0.292
  1320,  4.315, 17.705, 66.870,  2.336,  0.281
  1380,  4.250, 15.913, 62.680,  2.475,  0.273
  1440,  3.879, 12.950, 51.617,  2.198,  0.277
  1500,  3.686, 11.567, 48.076,  2.088,  0.209
  1560,  3.520, 10.561, 42.780,  1.977,  0.218
  1620,  3.358,  9.370, 38.384,  2.027,  0.146
  1680,  3.387,  9.253, 36.026,  2.118,  0.125
  1740,  3.514,  9.870, 36.056,  2.081,  0.174
  1800,  3.543,  9.919, 35.758,  2.120,  0.183
  1860,  3.734, 10.411, 35.992,  2.224,  0.182
  1920,  3.488,  9.104, 34.012,  2.357,  0.172
  1980,  3.695, 10.652, 33.651,  2.221,  0.242
  2040,  3.909, 11.878, 34.523,  2.321,  0.240
  2100, -9999.000, -9999.000, -9999.000, -9999.000, -9999.000
  2160,  4.309, 14.659, 33.488,  2.808,  0.405
  2220,  4.339, 14.761, 35.519,  2.867,  0.265
  2280,  4.394, 17.476, 42.495,  2.815,  0.256
  2340,  5.080, 28.430, 82.596,  3.121,  0.345
  2400,  5.217, 31.876, 97.370,  3.266,  0.526
  2460,  5.063, 30.344, 97.551,  3.288,  0.431
  2520,  5.232, 31.054, 99.767,  3.128,  0.443
  2580,  5.311, 32.394, 111.040,  3.238,  0.510
  2640,  5.366, 33.242, 119.306,  3.489,  0.421
  2700,  5.649, 34.684, 124.308,  3.367,  0.455
  2760,  5.671, 34.616, 130.064,  3.629,  0.505
  2820,  5.822, 34.184, 131.512,  3.704,  0.517
  2880,  6.090, 33.192, 140.634,  3.528,  0.568
  2940,  6.119, 33.378, 143.625,  3.648,  0.491
  3000,  6.230, 33.296, 149.159,  3.882,  0.550
  3060,  6.397, 33.951, 149.828,  3.834,  0.485
  3120,  6.323, 33.726, 154.849,  3.719,  0.558
  3180,  6.283, 33.152, 154.977,  3.837,  0.415
  3240,  6.398, 34.112, 157.239,  3.702,  0.569
  3300,  6.367, 33.955, 156.308,  3.635,  0.494
  3360,  6.354, 32.335, 157.144,  3.662,  0.552
  3420,  6.544, 34.698, 160.438,  3.748,  0.544
  3480,  6.450, 32.527, 163.587,  3.549,  0.514
  3540,  6.479, 32.994, 165.641,  3.624,  0.411
  3600,  6.337, 29.395, 154.662,  3.772,  0.598
  3660,  5.749, 21.363, 112.525,  3.421,  0.277
  3720,  5.682, 20.044, 102.471,  3.068,  0.080
  3780,  5.811, 20.619, 96.337,  3.159,  0.218
  3840,  5.742, 20.344, 95.277,  3.011,  0.266
  3900,  5.711, 20.698, 93.664,  2.873,  0.226
  3960, -9999.000, -9999.000, -9999.000, -9999.000, -9999.000
  4020,  5.751, 21.953, 83.789,  3.134,  0.196
  4080,  5.739, 21.410, 87.698,  3.115,  0.149
  4140,  5.670, 20.907, 89.441,  3.031,  0.186
  4200,  5.668, 21.493, 88.413,  2.853,  0.159
  4260,  5.717, 21.342, 92.098,  2.981,  0.236
  4320,  5.726, 21.050, 90.222,  3.069,  0.232
  4380,  5.814, 21.609, 93.918,  3.118,  0.195
  4440,  5.868, 21.998, 96.012,  3.137,  0.222
  4500,  5.915, 22.574, 98.940,  3.147,  0.264
  4560,  6.018, 26.827, 116.513,  3.360,  0.306
  4620,  6.113, 27.510, 123.749,  3.276,  0.328
  4680,  6.270, 28.849, 129.501,  3.471,  0.326
  4740,  6.119, 28.546, 131.781,  3.355,  0.327
  4800,  6.301, 28.098, 136.134,  3.594,  0.359
  4860,  6.208, 28.211, 136.368,  3.426,  0.354
  4920,  6.297, 27.702, 138.014,  3.344,  0.298
  4980,  6.197, 27.416, 137.472,  3.538,  0.310
  5040,  6.342, 27.987, 141.690,  3.361,  0.327
  5100,  6.375, 27.532, 141.739,  3.375,  0.288
  5160,  6.294, 27.766, 146.805,  3.643,  0.383
  5220,  6.349, 28.910, 146.512,  3.430,  0.321
  5280,  6.207, 27.966, 143.730,  3.688,  0.373
  5340,  6.150, 26.817, 142.465,  3.492,  0.302
  5400,  6.061, 27.196, 142.508,  3.610,  0.436
  5460,  6.111, 27.407, 140.204,  3.524,  0.393
  5520,  6.044, 28.535, 139.734,  3.626,  0.388
  5580,  6.165, 27.488, 136.096,  3.559,  0.330
  5640,  6.116, 27.768, 136.366,  3.361,  0.407
  5700,  6.043, 26.743, 135.135,  3.672,  0.301
  5760,  6.103, 26.797, 138.365,  3.441,  0.466
  5820, -9999.000, -9999.000, -9999.000, -9999.000, -9999.000
  5880,  5.982, 25.023, 122.696,  3.629,  0.311
  5940,  5.967, 25.873, 132.361,  3.625,  0.333
  6000,  5.950, 25.453, 136.712,  3.449,  0.396
  6060,  5.961, 25.264, 140.015,  3.474,  0.396
  6120,  5.935, 25.242, 143.675,  3.496,  0.296
  6180,  5.966, 25.494, 145.672,  3.324,  0.347
  6240,  6.041, 25.561, 150.442,  3.401,  0.348
  6300,  6.491, 27.024, 145.362,  3.599,  0.424
  6360,  7.002, 26.301, 110.893,  3.564,  0.394
  6420,  7.428, 26.930, 87.829,  3.604,  0.406
  6480,  7.513, 25.785, 74.459,  3.635,  0.368
  6540,  7.235, 27.111, 93.796,  3.883,  0.442
  6600,  7.022, 27.247, 101.869,  3.917,  0.361
  6660,  7.103, 26.971, 100.810,  3.717,  0.388
  6720,  6.860, 26.806, 108.921,  3.852,  0.449
  6780,  6.931, 26.900, 109.234,  3.718,  0.410
  6840,  6.838, 26.803, 110.028,  3.804,  0.490
  6900,  6.776, 27.657, 112.044,  3.846,  0.335
  6960,  6.753, 27.923, 118.524,  3.827,  0.391
  7020,  6.378, 26.403, 125.700,  3.622,  0.451
  7080,  6.203, 26.033, 125.106,  3.800,  0.403
  7140,  6.384, 26.391, 135.088,  3.708,  0.480
  7200,  6.391, 25.962, 134.525,  3.790,  0.484
  7260,  6.457, 26.338, 137.376,  3.868,  0.430
  7320,  6.315, 25.820, 134.712,  3.618,  0.441
  7380,  6.464, 26.079, 133.531,  3.805,  0.461
  7440,  6.127, 25.294, 131.563,  3.513,  0.421
  7500,  6.117, 25.753, 133.347,  3.536,  0.501
  7560,  5.797, 24.281, 134.281,  3.341,  0.429
  7620,  5.825, 23.593, 132.163,  3.484,  0.391
  7680,  5.422, 21.078, 114.311,  3.399,  0.471
  7740,  5.525, 23.024, 121.872,  3.500,  0.454
  7800,  5.489, 22.981, 124.131,  3.378,  0.450
  7860,  5.519, 22.663, 124.811,  3.324,  0.479
  7920,  5.399, 22.276, 124.262,  3.383,  0.360
  7980,  5.416, 21.928, 126.617,  3.348,  0.432
  8040,  5.282, 21.899, 121.616,  3.331,  0.427
  8100,  5.365, 22.284, 120.545,  3.352,  0.459
  8160,  5.442, 21.875, 121.344,  3.261,  0.434
  8220,  5.422, 21.855, 121.487,  3.489,  0.409
  8280,  5.291, 21.492, 123.921,  3.654,  0.510
  8340,  5.186, 21.165, 123.707,  3.391,  0.382
  8400,  5.089, 20.944, 121.872,  3.449,  0.363
  8460,  5.257, 20.377, 123.201,  3.476,  0.308
  8520,  5.223, 20.449, 123.955,  3.538,  0.467
  8580,  5.417, 21.243, 124.053,  3.877,  0.485
  8640,  5.329, 21.420, 122.985,  3.753,  0.478
  8700,  5.291, 21.586, 123.342,  3.815,  0.377
  8760,  5.226, 21.208, 123.179,  3.821,  0.489
  8820,  5.295, 20.739, 123.141,  3.709,  0.421
  8880,  5.167, 20.724, 120.229,  3.869,  0.467
  8940,  5.181, 20.141, 119.885,  3.870,  0.507
  9000,  5.107, 20.396, 118.776,  3.831,  0.468
  9060,  5.060, 20.020, 120.916,  3.847,  0.429
  9120,  5.101, 19.792, 120.390,  4.007,  0.429
  9180,  4.939, 19.214, 118.633,  3.860,  0.390
  9240,  5.064, 19.747, 121.325,  4.080,  0.480
  9300,  4.951, 19.558, 123.341,  4.214,  0.533
  9360,  5.030, 20.283, 122.553,  4.074,  0.465
  9420,  5.074, 19.582, 119.876,  4.141,  0.443
  9480,  4.939, 18.863, 119.984,  4.077,  0.485
  9540,  4.736, 18.445, 96.176,  4.202,  0.343
  9600,  4.867, 18.899, 104.677,  4.084,  0.414
  9660,  4.890, 19.175, 111.467,  4.282,  0.472
  9720,  4.765, 18.958, 113.723,  4.181,  0.377
  9780,  4.906, 18.455, 116.105,  4.111,  0.471
  9840,  4.855, 18.900, 118.561,  4.287,  0.344
  9900,  4.776, 18.376, 118.328,  4.186,  0.441
  9960,  4.766, 18.232, 118.716,  4.139,  0.485
 10020,  4.735, 17.899, 118.584,  4.248,  0.430
 10080,  4.682, 17.547, 116.435,  4.079,  0.459
 10140,  4.645, 17.527, 116.836,  4.128,  0.448
 10200,  4.601, 17.462, 114.581,  4.019,  0.398
 10260,  4.660, 17.630, 115.144,  4.086,  0.384
 10320,  4.587, 17.522, 116.603,  4.140,  0.383
 10380,  4.638, 17.745, 116.491,  4.144,  0.405
 10440,  4.592, 16.803, 115.768,  4.100,  0.439
 10500,  4.564, 16.976, 115.188,  4.047,  0.298
 10560,  4.668, 16.636, 114.572,  3.970,  0.319
 10620,  4.454, 16.431, 114.504,  4.160,  0.347
 10680,  4.506, 17.080, 114.654,  4.177,  0.424
 10740,  4.524, 17.420, 115.977,  4.190,  0.412
 10800,  4.503, 16.749, 114.406,  4.055,  0.309
 10860,  4.515, 16.676, 113.605,  4.027,  0.344
 10920,  4.590, 17.179, 112.573,  4.363,  0.322
 10980,  4.574, 16.891, 113.907,  4.304,  0.308
 11040,  4.609, 16.793, 115.110,  4.388,  0.375
 11100,  4.684, 16.944, 115.179,  4.440,  0.373
 11160,  4.519, 16.666, 112.511,  4.392,  0.292
 11220,  4.639, 16.637, 113.849,  4.476,  0.304
 11280,  4.573, 16.060, 111.876,  4.446,  0.300
 11340,  4.928, 17.623, 112.271,  4.724,  0.234
 11400,  4.480, 16.861, 103.877,  4.257,  0.264
 11460,  4.597, 16.719, 105.026,  4.612,  0.352
 11520,  4.477, 16.709, 108.042,  4.611,  0.377
 11580,  4.400, 16.466, 105.281,  4.415,  0.251
 11640,  4.550, 16.064, 110.006,  4.507,  0.282
 11700,  4.505, 16.466, 111.065,  4.691,  0.281
 11760,  4.513, 15.222, 109.513,  4.478,  0.207
 11820,  4.473, 16.005, 107.940,  4.391,  0.337
 11880,  4.508, 15.529, 110.048,  4.413,  0.338
 11940,  4.352, 15.838, 107.847,  4.411,  0.327
 12000,  4.380, 15.182, 108.275,  4.468,  0.359
 12060,  4.434, 16.087, 109.224,  4.502,  0.317
 12120,  4.485, 15.745, 109.815,  4.524,  0.372
 12180,  4.428, 15.709, 109.244,  4.635,  0.346
 12240,  4.527, 15.692, 112.631,  4.666,  0.387
 12300,  4.378, 15.495, 112.542,  4.896,  0.424
 12360,  4.378, 14.957, 112.163,  4.627,  0.395
 12420,  4.362, 14.927, 112.515,  4.511,  0.313
 12480,  4.440, 15.987, 114.869,  5.202,  0.441
 12540,  4.369, 15.143, 113.759,  4.988,  0.461
 12600,  4.361, 15.322, 114.986,  5.167,  0.489
 12660,  4.333, 15.325, 114.422,  5.097,  0.414
 12720,  4.474, 15.600, 115.481,  5.467,  0.537
 12780,  4.319, 15.294, 112.196,  5.323,  0.507
 12840,  4.423, 15.570, 115.092,  5.565,  0.515
 12900,  4.450, 15.130, 117.282,  5.673,  0.567
 12960,  4.491, 15.426, 115.524,  5.845,  0.528
 13020,  4.370, 14.972, 116.006,  6.034,  0.564
 13080,  4.523, 16.024, 116.341,  6.000,  0.655
 13140,  4.430, 15.450, 115.355,  6.091,  0.648
 13200, -9999.000, -9999.000, -9999.000, -9999.000, -9999.000
 13260,  4.287, 15.449, 93.881,  6.008,  0.579
 13320,  4.404, 15.746, 100.980,  6.249,  0.755
 13380,  4.386, 15.812, 105.666,  6.205,  0.707
 13440,  4.354, 16.164, 107.387,  6.083,  0.597
 13500,  4.281, 15.308, 108.405,  5.649,  0.642
 13560,  4.227, 15.246, 108.153,  5.682,  0.523
 13620,  4.278, 15.068, 110.402,  5.727,  0.563
 13680,  4.262, 14.670, 109.574,  5.730,  0.607
 13740,  4.269, 15.332, 111.240,  6.158,  0.594
 13800,  4.376, 15.326, 112.683,  6.013,  0.591
 13860,  4.333, 14.845, 113.284,  5.977,  0.631
 13920,  4.371, 15.939, 112.817,  5.890,  0.690
 13980,  4.299, 15.164, 112.279,  5.939,  0.620
 14040,  4.304, 14.950, 110.601,  6.022,  0.656
 14100,  4.251, 15.630, 109.147,  5.942,  0.638
 14160,  4.279, 15.915, 108.553,  5.976,  0.716
 14220,  4.309, 15.763, 107.882,  6.105,  0.542
 14280,  4.450, 16.038, 109.413,  6.432,  0.710
 14340,  4.478, 16.428, 108.939,  6.814,  0.707
 14400,  4.295, 15.840, 107.439,  6.604,  0.795
 14460,  4.294, 16.290, 109.631,  6.614,  0.700
 14520,  4.354, 15.812, 109.206,  6.296,  0.717
 14580,  4.359, 15.487, 111.678,  6.290,  0.667
 14640,  4.298, 14.740, 109.980,  6.068,  0.617
 14700,  4.287, 14.509, 110.953,  6.090,  0.580
 14760,  4.196, 14.385, 110.449,  5.934,  0.629
 14820,  4.263, 14.741, 108.879,  5.739,  0.682
 14880,  4.247, 14.337, 108.213,  5.724,  0.570
 14940,  4.169, 14.382, 106.525,  5.826,  0.553
 15000,  4.162, 14.323, 106.943,  5.688,  0.540
 15060, -9999.000, -9999.000, -9999.000, -9999.000, -9999.000
 15120,  4.062, 14.118, 97.679,  5.576,  0.608
 15180,  4.117, 14.333, 100.783,  5.663,  0.576
 15240,  4.225, 14.275, 104.062,  5.811,  0.695
 15300,  4.251, 14.807, 105.624,  5.956,  0.637
 15360,  4.168, 14.255, 106.751,  5.874,  0.645
 15420,  4.213, 14.200, 108.297,  5.988,  0.527
 15480,  4.120, 13.686, 109.148,  5.954,  0.587
 15540,  4.129, 13.690, 107.027,  5.939,  0.582
 15600,  4.079, 13.786, 105.963,  6.010,  0.467
 15660,  4.193, 14.532, 105.684,  6.198,  0.556
 15720,  4.116, 13.679, 104.483,  6.236,  0.539
 15780,  4.078, 14.104, 105.661,  6.413,  0.528
 15840,  4.102, 13.674, 104.787,  6.458,  0.576
 15900,  4.165, 13.937, 104.546,  6.696,  0.564
 15960,  4.123, 13.529, 101.905,  6.463,  0.522
 16020,  4.120, 13.874, 105.649,  6.654,  0.649
 16080,  4.071, 13.582, 104.017,  6.494,  0.604
 16140,  4.140, 14.306, 106.122,  6.800,  0.649
 16200,  4.160, 14.294, 106.812,  6.970,  0.701
 16260,  4.141, 14.198, 107.956,  7.297,  0.667
 16320,  4.151, 14.721, 109.152,  7.622,  0.664
 16380,  4.174, 14.664, 110.175,  7.634,  0.678
 16440,  4.246, 15.321, 109.905,  7.987,  0.716
 16500,  4.202, 14.805, 108.040,  8.209,  0.763
 16560,  4.210, 14.884, 107.416,  7.980,  0.641
 16620,  4.264, 14.728, 105.862,  8.203,  0.714
 16680,  4.150, 14.121, 105.828,  7.961,  0.610
 16740,  4.051, 14.277, 105.077,  8.149,  0.689
 16800,  4.000, 14.136, 103.916,  8.174,  0.551
 16860,  4.055, 14.300, 104.225,  8.773,  0.678
 16920, -9999.000, -9999.000, -9999.000, -9999.000, -9999.000
 16980,  4.013, 14.314, 91.597,  7.781,  0.633
 17040,  3.988, 14.090, 97.106,  8.251,  0.592
 17100,  3.990, 13.797, 99.194,  8.201,  0.672
 17160,  3.984, 14.067, 101.152,  8.513,  0.690
 17220,  4.072, 14.372, 102.658,  8.835,  0.671
 17280,  3.970, 14.667, 103.760,  9.106,  0.747
 17340,  4.009, 14.579, 103.373,  8.733,  0.725
 17400,  4.034, 14.476, 104.496,  8.734,  0.645
 17460,  4.086, 14.439, 103.980,  9.089,  0.647
 17520,  4.042, 14.537, 105.828,  8.895,  0.782
 17580,  4.002, 13.780, 104.645,  8.768,  0.692
 17640,  4.011, 14.031, 106.169,  8.980,  0.775
 17700,  4.065, 13.931, 104.803,  9.022,  0.701
 17760,  4.051, 14.338, 104.429,  9.021,  0.677
 17820,  4.002, 13.995, 99.501,  8.760,  0.671
 17880,  4.078, 14.025, 102.400,  9.283,  0.696
 17940,  4.066, 14.499, 103.937,  9.288,  0.743
 18000,  4.069, 14.101, 103.464,  9.222,  0.738
 18060,  4.032, 14.037, 103.559,  9.399,  0.781
 18120,  4.035, 14.629, 105.164,  9.834,  0.843
 18180,  3.954, 14.906, 101.687,  9.246,  0.736
 18240,  4.063, 13.957, 102.782,  9.353,  0.830
 18300,  3.986, 14.275, 100.278,  9.051,  0.808
 18360,  4.056, 14.314, 100.849,  9.355,  0.822
 18420,  4.139, 14.299, 100.856,  9.479,  0.931
 18480,  4.072, 14.420, 101.022,  9.860,  0.861
 18540,  4.051, 14.212, 100.578,  9.769,  0.818
 18600,  4.002, 14.514, 99.512,  9.752,  0.837
 18660,  4.074, 14.508, 99.955,  9.309,  0.860
 18720,  4.040, 13.285, 99.757,  9.487,  0.855
 18780,  3.912, 13.925, 88.047,  8.790,  0.784
 18840,  4.025, 13.338, 93.888,  9.109,  0.618
 18900,  3.981, 13.487, 95.542,  9.209,  0.672
 18960,  3.893, 13.231, 95.808,  9.103,  0.752
 19020,  3.912, 13.489, 95.956,  9.243,  0.714
 19080,  3.897, 13.139, 94.161,  9.284,  0.763
 19140,  3.841, 13.315, 93.976,  9.379,  0.752
 19200,  3.829, 13.138, 92.821,  9.225,  0.676
 19260,  3.888, 13.589, 92.945,  9.491,  0.850
 19320,  3.874, 13.078, 93.516,  9.580,  0.733
 19380,  3.879, 13.137, 96.106,  9.208,  0.739
 19440,  3.901, 13.691, 99.129,  9.437,  0.732
 19500,  4.018, 13.280, 100.681,  9.310,  0.756
 19560,  3.879, 12.841, 100.952,  9.143,  0.855
 19620,  3.983, 13.109, 99.908,  9.334,  0.699
 19680,  3.808, 12.452, 99.334,  9.285,  0.763
 19740,  3.863, 12.610, 98.186,  9.343,  0.748
 19800,  3.942, 12.919, 96.936,  9.096,  0.722
 19860,  3.837, 13.336, 98.584,  9.243,  0.706
 19920,  3.864, 12.444, 96.139,  9.272,  0.666
 19980,  3.818, 13.238, 97.149,  9.366,  0.807
 20040,  3.865, 12.902, 95.866,  9.280,  0.659
 20100,  3.827, 12.555, 96.881,  9.433,  0.629
 20160,  3.828, 12.831, 95.497,  9.316,  0.680
 20220,  3.715, 12.135, 93.936,  9.396,  0.636
 20280,  3.710, 12.212, 94.541,  9.564,  0.727
 20340,  3.721, 12.125, 92.815,  9.371,  0.783
 20400,  3.649, 12.047, 92.151,  9.514,  0.724
 20460,  3.749, 11.970, 91.470,  9.242,  0.821
 20520,  3.683, 11.876, 90.300,  9.134,  0.821
 20580, -9999.000, -9999.000, -9999.000, -9999.000, -9999.000
 20640,  3.719, 12.142, 81.395,  9.589,  0.807
 20700,  3.733, 12.525, 85.573,  9.468,  0.695
 20760,  3.768, 12.568, 91.450,  9.827,  0.786
 20820,  3.784, 12.536, 92.614,  9.662,  0.783
 20880,  3.830, 12.556, 92.097,  9.574,  0.769
 20940,  3.840, 12.609, 94.287,  9.628,  0.729
 21000,  3.775, 12.614, 93.251,  9.233,  0.820
 21060,  3.733, 12.063, 92.020,  9.236,  0.731
 21120,  3.757, 11.924, 94.214,  9.409,  0.761
 21180,  3.650, 11.842, 91.738,  8.877,  0.794
 21240,  3.695, 12.142, 92.333,  9.039,  0.761
 21300,  3.728, 12.002, 92.997,  9.053,  0.694
 21360,  3.588, 11.770, 90.982,  8.862,  0.778
 21420,  3.669, 11.806, 90.901,  8.502,  0.705
 21480,  3.667, 11.879, 90.525,  8.660,  0.700
 21540,  3.639, 11.580, 91.687,  8.636,  0.691
 21600,  3.643, 11.885, 91.588,  8.302,  0.758
 21660,  3.591, 11.437, 90.941,  8.246,  0.707
 21720,  3.678, 11.277, 90.015,  8.093,  0.613
 21780,  3.644, 11.769, 90.607,  8.078,  0.668
 21840,  3.579, 11.457, 91.787,  8.337,  0.723
 21900,  3.676, 11.318, 92.354,  8.244,  0.661
 21960,  3.693, 11.576, 92.399,  8.290,  0.680
 22020,  3.685, 11.659, 93.161,  8.497,  0.679
 22080,  3.663, 11.800, 93.859,  8.445,  0.675
 22140,  3.699, 11.223, 92.741,  8.430,  0.687
 22200,  3.762, 11.035, 91.100,  8.465,  0.700
 22260,  3.665, 11.757, 92.586,  8.599,  0.714
 22320,  3.590, 11.156, 90.574,  8.411,  0.742
 22380,  3.569, 11.932, 91.379,  8.505,  0.672
 22440, -9999.000, -9999.000, -9999.000, -9999.000, -9999.000
 22500,  3.562, 11.523, 86.574,  8.402,  0.618
 22560,  3.584, 11.179, 87.186,  8.419,  0.641
 22620,  3.591, 11.774, 88.694,  8.790,  0.724
 22680,  3.708, 11.308, 91.151,  8.773,  0.721
 22740,  3.640, 11.655, 92.435,  8.492,  0.693
 22800,  3.683, 11.662, 91.115,  8.617,  0.732
 22860,  3.530, 11.061, 90.073,  8.414,  0.675
 22920,  3.593, 11.325, 89.984,  8.784,  0.693
 22980,  3.643, 11.645, 90.530,  8.597,  0.674
 23040,  3.593, 10.720, 89.836,  8.460,  0.725
 23100,  3.594, 11.294, 90.888,  8.648,  0.828
 23160,  3.528, 11.033, 89.119,  8.548,  0.704
 23220,  3.635, 11.539, 92.350,  8.863,  0.785
 23280,  3.662, 11.578, 90.190,  8.693,  0.777
 23340,  3.580, 11.493, 91.642,  9.108,  0.839
 23400,  3.615, 11.689, 91.472,  8.917,  0.848
 23460,  3.717, 11.815, 92.329,  8.867,  0.889
 23520,  3.601, 11.367, 92.115,  8.824,  0.860
 23580,  3.687, 10.978, 92.648,  8.741,  0.847
 23640,  3.625, 10.874, 91.839,  8.771,  0.811
 23700,  3.621, 10.784, 89.464,  8.700,  0.794
 23760,  3.701, 11.432, 91.459,  9.013,  0.876
 23820,  3.707, 11.588, 91.503,  8.923,  0.875
 23880,  3.606, 10.826, 90.975,  8.882,  0.901
 23940,  3.631, 11.691, 89.775,  9.036,  0.820
 24000,  3.594, 11.335, 90.300,  9.157,  0.854
 24060,  3.668, 11.111, 90.898,  9.176,  0.839
 24120,  3.586, 11.353, 89.565,  8.929,  0.910
 24180,  3.639, 11.226, 89.870,  9.127,  0.895
 24240,  3.643, 11.070, 88.274,  8.876,  0.963
 24300, -9999.000, -9999.000, -9999.000, -9999.000, -9999.000
 24360,  3.463, 11.367, 78.338,  8.521,  0.794
 24420,  3.506, 10.646, 80.866,  8.556,  0.815
 24480,  3.576, 11.340, 81.894,  8.867,  0.819
 24540,  3.616, 10.825, 83.114,  8.987,  0.885
 24600,  3.510, 10.513, 80.981,  8.831,  0.821
 24660,  3.540, 10.746, 84.011,  8.957,  0.892
 24720,  3.476, 11.124, 81.358,  8.834,  0.881
 24780,  3.524, 10.858, 82.772,  9.145,  0.930
 24840,  3.552, 10.832, 82.580,  8.775,  0.946
 24900,  3.612, 10.765, 85.376,  9.312,  0.829
 24960,  3.627, 10.983, 84.819,  9.121,  0.830
 25020,  3.559, 11.156, 84.627,  9.012,  0.890
 25080,  3.620, 10.958, 88.195,  8.958,  0.841
 25140,  3.619, 11.200, 88.018,  9.206,  0.823
 25200,  3.618, 10.863, 87.517,  9.066,  0.823
 25260,  3.627, 10.924, 88.354,  9.149,  0.852
 25320,  3.552, 11.285, 89.159,  9.135,  0.852
 25380,  3.688, 10.928, 88.737,  9.074,  0.948
 25440,  3.527, 11.064, 89.582,  8.925,  0.848
 25500,  3.564, 11.481, 92.603,  9.049,  0.975
 25560,  3.478, 10.842, 89.979,  8.635,  0.857
 25620,  3.401, 11.357, 91.906,  8.488,  0.780
 25680,  3.482, 11.235, 90.713,  8.710,  0.782
 25740,  3.516, 11.216, 90.466,  8.881,  0.835
 25800,  3.464, 11.078, 92.015,  8.950,  0.893
 25860,  3.475, 10.398, 90.530,  8.804,  0.873
 25920,  3.448, 10.645, 89.923,  8.490,  0.727
 25980,  3.367, 10.655, 87.964,  8.432,  0.765
 26040,  3.388, 11.011, 89.086,  8.410,  0.816
 26100,  3.381, 10.889, 89.351,  8.877,  0.840
 26160,  3.127,  9.666, 76.367,  7.778,  0.850
 26220,  3.273, 10.327, 80.315,  8.304,  0.879
 26280,  3.326, 10.733, 80.396,  8.378,  0.839
 26340,  3.486, 10.613, 85.572,  9.025,  0.766
 26400,  3.392, 10.210, 86.073,  8.929,  0.827
 26460,  3.378, 10.843, 85.343,  9.063,  0.894
 26520,  3.520, 11.117, 91.473,  9.495,  0.933
 26580,  3.489, 11.136, 88.715,  9.535,  0.842
 26640,  3.547, 11.035, 92.662,  9.512,  0.951
 26700,  3.524, 10.972, 91.383,  9.368,  0.888
 26760,  3.503, 10.973, 92.491,  9.242,  0.955
 26820,  3.436, 10.782, 90.839,  9.264,  0.920
 26880,  3.559, 10.980, 91.145,  9.203,  0.983
 26940,  3.480, 10.730, 91.679,  9.522,  1.049
 27000,  3.471, 10.654, 92.160,  9.385,  0.999
 27060,  3.576, 10.699, 91.064,  9.224,  0.902
 27120,  3.507, 10.750, 91.827,  9.413,  0.975
 27180,  3.437, 10.616, 89.664,  9.276,  0.970
 27240,  3.458, 10.409, 89.596,  9.132,  0.980
 27300,  3.485, 10.794, 90.194,  9.254,  0.911
 27360,  3.549, 10.528, 90.067,  9.324,  0.940
 27420,  3.507, 10.480, 89.989,  9.746,  1.019
 27480,  3.592, 10.863, 89.877,  9.831,  1.082
 27540,  3.521, 10.819, 87.603,  9.799,  1.102
 27600,  3.518, 10.843, 86.170,  9.642,  1.071
 27660,  3.557, 10.415, 85.444,  9.517,  1.004
 27720,  3.575, 10.260, 85.844,  9.301,  1.045
 27780,  3.511, 10.223, 85.518,  9.323,  0.908
 27840,  3.575, 10.924, 85.221,  9.507,  1.070
 27900,  3.488, 10.264, 84.023,  9.211,  1.041
 27960,  3.420, 10.184, 83.545,  8.898,  1.274
 28020,  3.094, 10.424, 71.781,  9.035,  0.734
 28080,  3.318, 10.455, 75.574,  8.756,  0.962
 28140,  3.383,  9.944, 78.444,  8.845,  0.887
 28200,  3.600, 10.867, 79.163,  9.955,  1.280
 28260,  3.780, 10.432, 79.277, 10.873,  1.410
 28320,  3.882, 11.123, 74.713, 11.643,  1.620
 28380,  3.886, 11.060, 73.852, 11.534,  1.656
 28440,  3.976, 10.989, 73.447, 12.406,  1.844
 28500,  4.093, 11.502, 74.656, 13.059,  1.739
 28560,  4.029, 11.671, 72.341, 13.152,  1.823
 28620,  4.155, 11.784, 73.147, 13.659,  1.894
 28680,  4.048, 11.719, 70.942, 13.889,  1.770
 28740,  4.065, 11.439, 70.730, 13.514,  1.805
 28800,  4.055, 12.281, 71.721, 14.200,  2.037
 28860,  4.040, 11.224, 69.069, 13.730,  1.795
 28920,  4.050, 11.997, 69.800, 13.835,  1.889
 28980,  4.115, 11.908, 69.793, 14.475,  1.989
 29040,  4.206, 11.333, 71.131, 14.648,  1.903
 29100,  4.072, 10.959, 68.623, 13.512,  1.762
 29160,  4.106, 11.207, 68.283, 14.075,  1.782
 29220,  3.884, 11.290, 71.197, 12.542,  1.522
 29280,  3.865, 11.099, 72.630, 12.381,  1.398
 29340,  3.883, 10.863, 74.204, 12.786,  1.499
 29400,  3.693, 10.888, 73.582, 11.604,  1.246
 29460,  3.652, 10.692, 78.043, 11.002,  1.070
 29520,  3.501, 10.044, 77.674, 10.435,  1.090
 29580,  3.485, 10.537, 80.610,  9.720,  0.954
 29640,  3.445, 10.329, 80.870,  9.907,  1.014
 29700,  3.492, 10.276, 81.246,  9.763,  0.972
 29760,  3.453,  9.998, 80.361,  9.579,  0.863
 29820,  3.398,  9.966, 82.361,  9.923,  0.728
 29880,  3.356, 10.449, 73.933,  9.077,  0.842
 29940,  3.384, 10.003, 77.367,  9.034,  0.853
 30000,  3.349, 10.070, 79.440,  9.020,  0.734
 30060,  3.350, 10.138, 82.447,  8.962,  0.740
 30120,  3.335,  9.793, 79.797,  8.915,  0.795
 30180,  3.298,  9.851, 81.571,  8.680,  0.836
 30240,  3.336,  9.749, 81.690,  8.714,  0.758
 30300,  3.299,  9.423, 79.427,  8.450,  0.637
 30360,  3.373,  9.527, 79.673,  8.427,  0.892
 30420,  3.238,  9.119, 79.623,  8.406,  0.889
 30480,  3.340,  8.562, 74.742,  8.007,  0.965
 30540,  3.408,  9.139, 74.619,  7.956,  1.023
 30600,  3.313,  8.845, 73.788,  8.136,  1.161
 30660,  3.310,  8.758, 72.223,  8.035,  1.091
 30720,  3.348,  8.280, 69.451,  7.774,  1.222
 30780,  3.360,  8.758, 68.780,  7.839,  1.191
 30840,  3.343,  8.785, 68.472,  7.782,  1.413
 30900,  3.274,  8.257, 66.363,  7.764,  1.337
 30960,  3.240,  8.257, 66.859,  7.451,  1.372
 31020,  3.260,  8.452, 65.080,  7.392,  1.329
 31080,  3.267,  7.966, 63.885,  7.445,  1.324
 31140,  3.284,  8.098, 63.334,  7.480,  1.431
 31200,  3.264,  8.347, 62.900,  7.760,  1.430
 31260,  3.250,  8.197, 63.098,  7.766,  1.586
 31320,  3.302,  7.912, 62.047,  7.916,  1.472
 31380,  3.364,  7.851, 61.238,  8.216,  1.374
 31440,  3.379,  8.650, 63.634,  8.626,  1.489
 31500,  3.390,  8.547, 62.137,  8.667,  1.459
 31560,  3.328,  8.209, 62.947,  8.429,  1.415
 31620,  3.401,  8.706, 64.925,  8.836,  1.409
 31680, -9999.000, -9999.000, -9999.000, -9999.000, -9999.000
 31740,  3.324,  7.830, 52.928,  8.030,  1.327
 31800,  3.392,  8.460, 55.509,  8.481,  1.401
 31860,  3.525,  8.384, 57.141,  9.156,  1.365
 31920,  3.485,  8.241, 58.399,  9.074,  1.486
 31980,  3.449,  8.258, 58.334,  8.867,  1.305
 32040,  3.365,  8.220, 59.169,  8.819,  1.391
 32100,  3.681,  8.409, 59.069,  9.740,  1.408
 32160,  3.609,  8.379, 57.958,  9.357,  1.295
 32220,  3.607,  8.424, 59.724,  9.669,  1.307
 32280,  3.707,  8.630, 59.938, 10.354,  1.349
 32340,  3.773,  9.015, 60.891, 10.613,  1.336
 32400,  3.763,  8.920, 59.295, 10.532,  1.315
 32460,  3.707,  8.590, 59.041,  9.927,  1.286
 32520,  3.612,  8.620, 60.407,  9.657,  1.411
 32580,  3.673,  8.287, 59.140, 10.253,  1.280
 32640,  3.837,  8.826, 60.555, 10.528,  1.342
 32700,  3.730,  8.559, 59.735, 10.274,  1.391
 32760,  3.671,  8.549, 58.627, 10.326,  1.372
 32820,  3.757,  9.033, 58.433, 10.246,  1.406
 32880,  3.703,  8.292, 57.809, 10.302,  1.311
 32940,  3.795,  8.536, 59.400, 10.136,  1.462
 33000,  3.807,  8.307, 58.047, 10.200,  1.420
 33060,  3.687,  8.231, 57.662,  9.942,  1.340
 33120,  3.691,  8.416, 58.789, 10.016,  1.327
 33180,  3.847,  8.427, 57.825, 10.394,  1.284
 33240,  3.976,  8.223, 59.406, 10.715,  1.359
 33300,  3.786,  8.522, 58.956, 10.265,  1.371
 33360,  3.682,  8.312, 56.692, 10.047,  1.312
 33420,  3.589,  8.104, 56.197,  9.141,  1.451
 33480,  3.519,  7.950, 56.226,  9.434,  1.400
 33540, -9999.000, -9999.000, -9999.000, -9999.000, -9999.000
 33600,  3.583,  7.593, 53.188,  9.148,  1.355
 33660,  3.611,  7.987, 54.387,  9.304,  1.534
 33720,  3.730,  8.034, 55.841,  9.636,  1.489
 33780,  3.839,  8.089, 55.861, 10.294,  1.454
 33840,  3.862,  8.268, 55.656, 10.198,  1.400
 33900,  3.970,  8.382, 56.992, 10.790,  1.569
 33960,  3.865,  8.139, 56.612, 10.434,  1.639
 34020,  3.827,  8.150, 55.600, 10.194,  1.522
 34080,  3.961,  8.423, 57.473, 10.652,  1.742
 34140,  3.823,  8.200, 53.858, 10.117,  1.652
 34200,  3.865,  8.224, 56.422, 10.161,  1.850
 34260,  3.916,  8.333, 54.085, 10.129,  1.783
 34320,  3.898,  8.435, 55.408, 10.398,  1.689
 34380,  3.960,  8.148, 55.062, 10.260,  1.907
 34440,  4.252,  8.735, 55.295, 11.048,  1.969
 34500,  4.396,  9.121, 56.486, 11.820,  1.976
 34560,  4.174,  8.812, 54.705, 11.430,  2.005
 34620,  4.226,  8.439, 54.534, 11.381,  2.032
 34680,  4.336,  9.113, 54.699, 12.116,  1.935
 34740,  4.309,  8.916, 55.474, 11.819,  1.909
 34800,  4.220,  8.594, 56.609, 11.231,  2.031
 34860,  4.212,  8.784, 54.943, 11.332,  1.922
 34920,  4.097,  8.123, 55.608, 11.098,  2.111
 34980,  3.899,  8.368, 56.926, 10.866,  1.943
 35040,  3.861,  7.906, 55.087, 10.268,  1.857
 35100,  3.897,  9.106, 59.018, 10.458,  1.628
 35160,  3.823,  8.472, 58.249, 10.433,  1.645
 35220,  3.714,  8.720, 59.249,  9.943,  1.534
 35280,  3.672,  8.865, 60.474,  9.716,  1.460
 35340,  3.649,  8.833, 62.420,  9.851,  1.159
 35400, -9999.000, -9999.000, -9999.000, -9999.000, -9999.000
 35460,  3.965,  8.348, 57.844,  9.220,  1.147
 35520,  3.848,  9.204, 55.667,  9.338,  0.990
 35580,  3.770,  8.925, 50.908,  9.558,  1.089
 35640,  3.819,  9.081, 47.837,  9.566,  1.065
 35700,  3.812,  9.089, 44.160,  9.533,  0.938
 35760,  3.909,  9.145, 44.209,  9.890,  0.998
 35820,  4.027,  9.439, 45.220, 10.490,  0.986
 35880,  4.177,  9.346, 45.645, 10.492,  0.940
 35940,  4.140,  9.675, 49.017, 10.998,  1.118
 36000,  4.307,  9.654, 49.491, 11.123,  0.966
 36060,  4.445,  9.934, 51.548, 11.298,  1.088
 36120,  4.595,  9.785, 55.115, 11.613,  1.018
 36180,  4.504,  9.920, 57.386, 11.606,  1.091
 36240,  4.571,  9.901, 57.271, 11.670,  0.995
 36300,  4.616,  9.978, 58.937, 11.756,  1.016
 36360,  4.632,  9.885, 61.196, 12.085,  1.019
 36420,  4.700,  9.896, 64.327, 12.042,  1.030
 36480,  4.760, 10.079, 64.605, 12.140,  1.002
 36540,  4.707, 10.296, 66.142, 12.056,  1.034
 36600,  4.740, 10.397, 65.920, 12.375,  1.003
 36660,  4.700, 10.410, 65.017, 12.550,  1.048
 36720,  4.755, 10.582, 66.268, 12.890,  1.022
 36780,  4.779, 10.218, 70.209, 13.159,  1.069
 36840,  4.780, 10.028, 69.137, 12.684,  1.103
 36900,  4.695, 10.329, 69.004, 12.693,  1.038
 36960,  4.598, 10.607, 68.364, 12.617,  1.114
 37020,  4.576, 10.318, 67.832, 12.637,  1.007
 37080,  4.525, 10.575, 70.642, 12.713,  1.098
 37140,  4.537,  9.938, 69.371, 12.367,  0.969
 37200,  4.351, 10.484, 68.373, 12.531,  1.121
 37260,  4.195,  9.977, 65.300, 12.184,  0.885
 37320,  4.312,  9.567, 64.348, 11.941,  0.839
 37380,  4.292,  9.600, 67.117, 11.933,  1.014
 37440,  4.306,  9.655, 70.153, 12.054,  1.075
 37500,  4.204,  9.743, 68.776, 11.650,  0.945
 37560,  4.171,  9.338, 67.654, 11.615,  0.971
 37620,  4.094,  9.479, 69.041, 11.848,  1.009
 37680,  4.150,  9.225, 68.747, 11.339,  0.991
 37740,  3.953,  8.993, 67.135, 11.253,  0.952
 37800,  4.088,  9.096, 67.616, 11.170,  0.968
 37860,  4.054,  8.865, 68.148, 11.016,  0.940
 37920,  4.025,  8.733, 66.298, 11.013,  0.887
 37980,  3.995,  9.152, 66.851, 11.095,  0.964
 38040,  3.949,  8.820, 64.893, 10.776,  0.903
 38100,  3.940,  8.729, 64.147, 10.853,  0.969
 38160,  3.946,  8.602, 67.339, 10.968,  0.959
 38220,  3.998,  8.712, 68.013, 10.967,  1.024
 38280,  3.988,  8.391, 67.348, 10.608,  0.947
 38340,  4.009,  8.665, 66.846, 10.752,  1.006
 38400,  3.894,  8.495, 64.616, 11.002,  0.948
 38460,  3.965,  8.577, 65.745, 10.873,  0.970
 38520,  3.971,  8.349, 63.605, 10.879,  0.959
 38580,  3.923,  8.218, 64.756, 10.493,  0.867
 38640,  4.041,  8.947, 66.072, 11.093,  1.031
 38700,  4.031,  8.599, 66.275, 10.777,  0.985
 38760,  4.084,  8.472, 65.753, 11.101,  0.818
 38820,  4.106,  8.527, 66.303, 11.066,  0.978
 38880,  4.096,  8.372, 64.351, 10.976,  0.946
 38940,  4.054,  8.371, 64.748, 10.921,  0.821
 39000,  4.054,  8.466, 65.290, 10.621,  0.812
 39060, -9999.000, -9999.000, -9999.000, -9999.000, -9999.000
 39120,  3.768,  7.828, 56.376, 10.024,  0.783
 39180,  3.867,  7.797, 58.582, 10.146,  0.812
 39240,  3.872,  7.901, 60.001, 10.276,  0.793
 39300,  3.929,  7.799, 61.214, 10.300,  0.724
 39360,  3.898,  7.746, 60.620, 10.204,  0.853
 39420,  3.780,  7.211, 61.459,  9.991,  0.808
 39480,  3.803,  7.482, 63.934,  9.797,  0.809
 39540,  3.738,  7.503, 62.980,  9.964,  0.959
 39600,  3.648,  7.397, 62.196,  9.681,  0.890
 39660,  3.598,  6.813, 62.882,  9.246,  0.811
 39720,  3.479,  6.755, 61.636,  8.911,  0.885
 39780,  3.447,  6.560, 61.072,  8.818,  0.870
 39840,  3.290,  6.336, 59.151,  8.614,  0.799
 39900,  3.287,  6.628, 59.956,  8.538,  0.759
 39960,  3.324,  6.223, 60.272,  8.489,  0.782
 40020,  3.271,  6.223, 60.028,  8.468,  0.834
 40080,  3.210,  6.262, 59.138,  8.138,  0.843
 40140,  3.228,  6.311, 57.005,  8.184,  0.765
 40200,  3.181,  6.072, 57.929,  7.903,  0.862
 40260,  3.203,  5.729, 55.418,  8.097,  0.859
 40320,  3.204,  6.433, 56.926,  7.994,  0.933
 40380,  3.195,  6.202, 58.529,  8.156,  0.938
 40440,  3.225,  5.915, 56.911,  8.084,  0.938
 40500,  3.207,  6.083, 56.219,  8.184,  0.854
 40560,  3.171,  5.690, 56.669,  8.195,  1.013
 40620,  3.165,  6.047, 56.505,  7.964,  0.830
 40680,  3.161,  5.993, 56.451,  8.149,  0.883
 40740,  3.172,  5.863, 56.173,  8.320,  0.890
 40800,  3.114,  6.073, 56.543,  8.091,  0.931
 40860,  3.159,  5.713, 56.436,  8.007,  0.858
 40920, -9999.000, -9999.000, -9999.000, -9999.000, -9999.000
 40980,  3.016,  5.508, 50.538,  7.716,  0.722
 41040,  3.124,  5.981, 52.605,  7.848,  0.857
 41100,  3.094,  5.377, 53.212,  7.942,  0.788
 41160,  3.017,  5.683, 51.385,  7.757,  0.894
 41220,  2.976,  5.732, 52.389,  7.757,  0.779
 41280,  2.965,  5.652, 52.811,  7.720,  0.854
 41340,  2.924,  5.607, 53.480,  7.732,  0.761
 41400,  2.970,  5.504, 53.798,  7.933,  0.850
 41460,  2.921,  5.739, 54.114,  7.810,  0.830
 41520,  2.868,  5.324, 52.433,  7.529,  0.725
 41580,  2.897,  5.462, 52.549,  7.664,  0.785
 41640,  2.904,  5.367, 53.310,  7.721,  0.793
 41700,  2.891,  5.417, 53.711,  7.647,  0.848
 41760,  2.964,  5.591, 54.628,  7.721,  0.793
 41820,  2.888,  5.600, 54.108,  7.864,  0.846
 41880,  2.937,  5.760, 52.989,  7.844,  0.914
 41940,  2.966,  5.785, 53.742,  8.142,  0.850
 42000,  2.911,  5.925, 53.171,  8.164,  0.856
 42060,  2.979,  6.178, 52.959,  8.424,  0.845
 42120,  2.981,  6.014, 55.029,  8.340,  0.888
 42180,  2.939,  5.903, 54.885,  8.391,  0.865
 42240,  2.972,  5.850, 53.399,  8.151,  0.817
 42300,  3.003,  6.424, 55.114,  8.546,  0.783
 42360,  2.941,  6.191, 52.896,  8.461,  0.841
 42420,  3.004,  6.308, 54.218,  8.698,  0.808
 42480,  2.976,  6.355, 53.521,  8.539,  0.770
 42540,  2.952,  6.208, 53.145,  8.707,  0.792
 42600,  3.075,  6.379, 54.896,  8.748,  0.787
 42660,  3.001,  6.182, 54.110,  8.763,  0.812
 42720,  2.955,  6.437, 54.495,  8.665,  0.769
 42780, -9999.000, -9999.000, -9999.000, -9999.000, -9999.000
 42840,  2.819,  6.010, 45.856,  8.070,  0.782
 42900,  2.881,  5.960, 49.299,  8.203,  0.895
 42960,  2.831,  6.275, 49.587,  8.147,  0.762
 43020,  2.854,  5.945, 49.848,  8.129,  0.834
 43080,  2.848,  5.766, 50.487,  8.029,  0.894
 43140,  2.899,  6.097, 51.941,  8.335,  0.944
 43200,  2.804,  6.126, 51.248,  8.282,  0.892
 43260,  2.817,  6.278, 52.000,  8.413,  0.918
 43320,  2.888,  6.040, 50.468,  8.234,  1.019
 43380,  2.868,  6.034, 49.938,  8.188,  0.960
 43440,  2.857,  5.938, 52.656,  8.177,  0.954
 43500,  2.819,  6.030, 51.604,  8.287,  0.992
 43560,  2.665,  5.623, 51.374,  7.495,  0.896
 43620,  2.691,  5.606, 51.463,  7.728,  0.960
 43680,  2.615,  5.419, 49.030,  7.378,  0.899
 43740,  2.612,  5.622, 50.221,  7.301,  0.905
 43800,  2.585,  5.574, 49.709,  7.387,  0.956
 43860,  2.568,  5.075, 50.072,  7.067,  0.858
 43920,  2.482,  4.911, 48.260,  6.835,  0.968
 43980,  2.447,  5.098, 47.367,  6.461,  0.864
 44040,  2.431,  4.990, 48.024,  6.559,  0.928
 44100,  2.418,  4.998, 48.059,  6.474,  0.913
 44160,  2.436,  4.728, 47.336,  6.528,  0.805
 44220,  2.376,  4.976, 47.025,  6.046,  0.900
 44280,  2.331,  4.735, 46.183,  6.211,  0.837
 44340,  2.357,  4.794, 45.620,  6.196,  0.873
 44400,  2.392,  4.869, 46.917,  6.265,  0.997
 44460,  2.361,  4.870, 47.078,  6.053,  0.921
 44520,  2.403,  4.740, 46.646,  6.199,  0.888
 44580,  2.364,  4.544, 48.298,  6.169,  1.023
 44640,  2.199,  4.267, 40.183,  5.597,  0.766
 44700,  2.308,  4.592, 41.752,  5.811,  0.776
 44760,  2.370,  4.656, 43.570,  6.114,  0.858
 44820,  2.281,  4.547, 43.385,  5.939,  0.843
 44880,  2.359,  4.678, 45.121,  6.227,  0.835
 44940,  2.359,  4.670, 45.128,  6.000,  0.893
 45000,  2.381,  4.691, 44.860,  6.010,  0.893
 45060,  2.356,  4.919, 44.207,  5.903,  0.879
 45120,  2.338,  4.736, 44.310,  5.931,  0.967
 45180,  2.373,  4.772, 45.084,  5.875,  0.901
 45240,  2.294,  4.689, 43.893,  5.866,  0.834
 45300,  2.295,  4.208, 42.634,  5.664,  0.785
 45360,  2.295,  4.626, 44.309,  6.053,  0.786
 45420,  2.321,  4.343, 45.438,  5.880,  0.837
 45480,  2.321,  4.492, 44.042,  6.024,  0.799
 45540,  2.340,  4.568, 44.643,  6.085,  0.838
 45600,  2.349,  4.486, 43.559,  5.674,  0.895
 45660,  2.282,  4.217, 42.071,  5.858,  0.777
 45720,  2.379,  4.109, 43.559,  5.854,  0.876
 45780,  2.336,  4.375, 43.329,  5.965,  0.763
 45840,  2.351,  4.366, 44.964,  5.783,  0.828
 45900,  2.332,  4.329, 44.372,  5.607,  0.882
 45960,  2.344,  4.620, 43.351,  5.882,  0.761
 46020,  2.297,  4.391, 42.938,  5.858,  0.773
 46080,  2.307,  4.582, 42.089,  5.881,  0.758
 46140,  2.317,  4.453, 42.855,  5.694,  0.841
 46200,  2.292,  4.081, 42.524,  5.785,  0.757
 46260,  2.318,  4.223, 42.389,  5.724,  0.686
 46320,  2.323,  4.566, 42.838,  5.679,  0.775
 46380,  2.308,  4.643, 43.367,  5.580,  0.744
 46440,  2.271,  5.000, 44.178,  5.648,  1.068
 46500,  2.176,  3.800, 34.913,  5.401,  0.863
 46560,  2.305,  4.060, 37.358,  5.710,  0.662
 46620,  2.377,  4.469, 39.296,  5.716,  0.765
 46680,  2.283,  4.115, 40.553,  5.632,  0.716
 46740,  2.393,  4.202, 40.864,  6.032,  0.805
 46800,  2.434,  4.713, 41.605,  5.981,  0.884
 46860,  2.560,  5.355, 45.224,  6.802,  1.111
 46920,  2.702,  5.391, 49.071,  7.034,  1.322
 46980,  2.606,  5.261, 47.453,  6.697,  1.235
 47040,  2.613,  5.337, 47.554,  6.753,  1.071
 47100,  2.530,  4.864, 46.921,  6.388,  1.029
 47160,  2.498,  4.991, 46.051,  6.284,  0.987
 47220,  2.513,  4.612, 44.004,  6.023,  0.863
 47280,  2.445,  4.461, 43.748,  5.968,  0.868
 47340,  2.471,  4.548, 45.422,  5.779,  1.007
 47400,  2.445,  4.438, 43.160,  5.638,  0.756
 47460,  2.467,  4.187, 41.485,  5.526,  0.755
 47520,  2.398,  3.983, 42.115,  5.511,  0.693
 47580,  2.369,  3.832, 41.067,  5.385,  0.711
 47640,  2.390,  3.785, 41.070,  5.275,  0.657
 47700,  2.364,  3.997, 41.120,  5.274,  0.727
 47760,  2.393,  3.633, 39.792,  4.975,  0.584
 47820,  2.353,  3.839, 38.717,  5.138,  0.641
 47880,  2.400,  3.977, 40.499,  5.188,  0.699
 47940,  2.405,  3.837, 41.204,  5.340,  0.725
 48000,  2.387,  3.792, 39.425,  5.086,  0.579
 48060,  2.339,  3.786, 40.452,  5.156,  0.662
 48120,  2.379,  3.590, 38.976,  5.063,  0.631
 48180,  2.407,  3.596, 39.626,  5.063,  0.627
 48240,  2.355,  3.452, 38.419,  4.702,  0.565
 48300,  2.202,  3.955, 39.035,  4.932,  0.529
 48360,  2.331,  3.641, 36.591,  4.968,  0.595
 48420,  2.422,  3.688, 37.100,  4.994,  0.625
 48480,  2.432,  3.513, 36.764,  4.841,  0.611
 48540,  2.342,  3.576, 38.417,  4.885,  0.605
 48600,  2.413,  3.675, 37.570,  4.815,  0.508
 48660,  2.393,  3.675, 36.851,  5.015,  0.537
 48720,  2.421,  3.703, 36.691,  4.842,  0.599
 48780,  2.355,  3.563, 37.259,  4.995,  0.554
 48840,  2.462,  3.780, 38.486,  5.030,  0.670
 48900,  2.447,  3.540, 37.831,  4.908,  0.570
 48960,  2.440,  4.003, 37.552,  4.774,  0.555
 49020,  2.445,  3.657, 37.425,  4.819,  0.560
 49080,  2.426,  3.798, 37.019,  4.845,  0.613
 49140,  2.487,  4.030, 37.168,  4.945,  0.629
 49200,  2.442,  4.014, 37.204,  4.768,  0.484
 49260,  2.522,  3.912, 36.469,  4.934,  0.571
 49320,  2.449,  4.001, 36.623,  4.834,  0.634
 49380,  2.531,  3.872, 36.306,  5.039,  0.665
 49440,  2.462,  3.970, 36.877,  4.879,  0.599
 49500,  2.471,  3.971, 37.629,  4.934,  0.557
 49560,  2.519,  3.958, 36.460,  4.858,  0.635
 49620,  2.551,  4.188, 37.226,  4.796,  0.613
 49680,  2.581,  4.074, 36.435,  4.943,  0.620
 49740,  2.550,  4.096, 35.853,  4.882,  0.585
 49800,  2.520,  4.198, 35.908,  4.830,  0.620
 49860,  2.579,  4.267, 35.149,  4.879,  0.632
 49920,  2.611,  4.341, 36.016,  4.808,  0.536
 49980,  2.662,  4.441, 36.392,  5.011,  0.547
 50040,  2.625,  4.859, 36.923,  4.995,  0.560
 50100,  2.635,  5.199, 36.576,  4.628,  0.620
 50160, -9999.000, -9999.000, -9999.000, -9999.000, -9999.000
 50220,  2.714,  4.654, 31.948,  4.667,  0.676
 50280,  2.663,  5.002, 33.381,  4.977,  0.711
 50340,  2.650,  4.713, 35.757,  4.865,  0.622
 50400,  2.649,  4.441, 35.174,  4.869,  0.541
 50460,  2.694,  4.512, 36.420,  4.948,  0.646
 50520,  2.675,  4.861, 36.224,  4.857,  0.572
 50580,  2.730,  4.969, 36.012,  4.911,  0.579
 50640,  2.700,  4.917, 36.336,  4.876,  0.619
 50700,  2.743,  4.823, 38.054,  4.630,  0.605
 50760,  2.686,  4.767, 36.151,  4.792,  0.652
 50820,  2.763,  5.034, 37.815,  4.798,  0.605
 50880,  2.743,  5.539, 36.440,  4.868,  0.646
 50940,  2.785,  5.502, 37.667,  4.632,  0.538
 51000,  2.835,  5.339, 38.096,  4.667,  0.563
 51060,  2.778,  5.140, 36.348,  4.650,  0.584
 51120,  2.836,  5.847, 38.589,  4.859,  0.676
 51180,  2.899,  5.620, 37.974,  4.716,  0.621
 51240,  2.828,  5.933, 38.027,  4.704,  0.640
 51300,  2.813,  5.590, 38.218,  4.805,  0.721
 51360,  2.849,  5.957, 37.812,  4.548,  0.655
 51420,  2.875,  6.506, 38.548,  4.631,  0.596
 51480,  2.879,  6.940, 38.251,  4.704,  0.627
 51540,  2.944,  7.035, 39.627,  4.580,  0.750
 51600,  2.908,  6.633, 37.730,  4.804,  0.661
 51660,  2.887,  6.781, 38.305,  4.549,  0.621
 51720,  2.906,  6.847, 39.780,  4.663,  0.609
 51780,  2.962,  7.322, 39.748,  4.621,  0.680
 51840,  2.970,  7.220, 38.319,  4.688,  0.612
 51900,  3.039,  7.290, 38.622,  4.611,  0.567
 51960,  3.052,  7.196, 37.853,  4.581,  0.584
 52020, -9999.000, -9999.000, -9999.000, -9999.000, -9999.000
 52080,  3.051,  7.122, 35.144,  4.446,  0.667
 52140,  3.146,  7.065, 35.921,  4.673,  0.595
 52200,  3.043,  6.950, 36.582,  4.627,  0.570
 52260,  3.132,  7.386, 36.796,  4.732,  0.662
 52320,  3.067,  7.510, 38.082,  4.758,  0.660
 52380,  3.105,  7.920, 38.064,  4.559,  0.625
 52440,  3.163,  8.015, 37.992,  4.721,  0.710
 52500,  3.111,  7.742, 39.081,  4.683,  0.701
 52560,  3.170,  7.384, 38.540,  4.663,  0.664
 52620,  3.205,  7.758, 39.082,  4.813,  0.676
 52680,  3.207,  8.090, 37.935,  4.683,  0.697
 52740,  3.355,  8.456, 38.798,  4.811,  0.661
 52800,  3.366,  8.841, 38.815,  4.726,  0.711
 52860,  3.599, 10.506, 38.777,  5.048,  0.652
 52920,  3.860, 12.264, 38.391,  5.266,  0.792
 52980,  3.663, 11.725, 38.356,  5.220,  0.759
 53040,  3.373, 10.622, 40.830,  4.827,  0.723
 53100,  3.285,  9.837, 40.378,  4.882,  0.726
 53160,  3.304, 10.945, 42.376,  4.901,  0.739
 53220,  3.380, 11.234, 42.505,  4.781,  0.751
 53280,  3.419, 10.644, 42.221,  4.894,  0.707
 53340,  3.375, 11.016, 41.753,  4.920,  0.751
 53400,  3.412, 11.572, 43.548,  4.863,  0.844
 53460,  3.502, 12.202, 43.498,  4.808,  0.868
 53520,  3.425, 11.356, 42.856,  5.071,  0.796
 53580,  3.533, 12.867, 43.223,  4.930,  0.736
 53640,  3.499, 12.709, 43.790,  5.084,  0.644
 53700,  3.562, 13.309, 43.171,  4.954,  0.822
 53760,  3.601, 13.505, 44.201,  5.013,  0.847
 53820,  3.592, 13.215, 42.627,  4.967,  0.741
 53880, -9999.000, -9999.000, -9999.000, -9999.000, -9999.000
 53940,  3.618, 12.672, 38.477,  4.987,  0.729
 54000,  3.599, 12.910, 41.325,  4.920,  0.724
 54060,  3.636, 13.399, 41.953,  5.115,  0.757
 54120,  3.565, 13.278, 42.956,  5.055,  0.784
 54180,  3.535, 13.172, 44.369,  5.266,  0.657
 54240,  3.515, 13.524, 45.307,  5.031,  0.741
 54300,  3.645, 14.106, 45.533,  5.022,  0.736
 54360,  3.652, 13.555, 44.913,  5.186,  0.841
 54420,  3.680, 14.073, 44.658,  4.941,  0.744
 54480,  3.529, 14.595, 44.941,  5.094,  0.781
 54540,  3.685, 14.247, 44.590,  5.044,  0.660
 54600,  3.715, 15.059, 44.790,  4.931,  0.675
 54660,  3.839, 15.610, 44.841,  5.104,  0.867
 54720,  3.750, 15.513, 45.707,  4.965,  0.870
 54780,  3.866, 16.580, 44.070,  5.175,  0.741
 54840,  3.969, 17.309, 42.948,  4.888,  0.836
 54900,  4.068, 17.874, 43.103,  5.075,  0.891
 54960,  4.212, 18.509, 43.023,  4.892,  0.833
 55020,  4.168, 17.876, 44.792,  4.830,  0.879
 55080,  4.166, 17.848, 45.313,  5.045,  0.829
 55140,  4.141, 17.925, 45.307,  5.058,  0.828
 55200,  4.488, 18.798, 45.590,  5.065,  0.817
 55260,  4.294, 18.414, 46.470,  5.016,  0.816
 55320,  4.089, 17.675, 47.628,  5.024,  0.917
 55380,  4.446, 19.680, 48.473,  5.039,  0.882
 55440,  4.373, 19.672, 47.767,  4.958,  0.795
 55500,  4.373, 20.135, 48.724,  5.262,  0.834
 55560,  4.382, 19.292, 49.936,  5.100,  0.717
 55620,  4.628, 20.434, 51.438,  5.209,  0.853
 55680,  4.470, 20.374, 50.158,  5.104,  0.884
 55740,  4.655, 21.973, 46.726,  5.097,  0.814
 55800,  5.837, 25.198, 45.624,  5.716,  0.867
 55860,  6.569, 27.567, 45.310,  6.117,  0.971
 55920,  4.803, 22.380, 50.352,  5.531,  0.976
 55980,  4.653, 22.442, 50.643,  5.218,  0.838
 56040,  4.632, 22.800, 53.654,  5.363,  1.029
 56100,  4.121, 21.543, 56.041,  5.116,  0.934
 56160,  4.250, 22.792, 57.732,  5.217,  0.901
 56220,  4.154, 23.092, 57.569,  5.186,  0.940
 56280,  4.167, 23.497, 58.050,  5.101,  0.984
 56340,  4.261, 23.680, 58.391,  5.176,  1.006
 56400,  4.421, 24.960, 58.674,  5.113,  0.992
 56460,  4.515, 25.417, 57.657,  5.261,  0.947
 56520,  4.552, 25.940, 57.266,  5.224,  0.885
 56580,  4.595, 25.594, 60.118,  5.337,  0.881
 56640,  4.596, 26.076, 59.456,  5.194,  1.024
 56700,  6.490, 30.862, 52.438,  5.893,  0.953
 56760,  7.128, 31.335, 51.132,  6.502,  0.929
 56820,  6.935, 30.514, 52.982,  6.181,  1.008
 56880,  7.686, 32.750, 51.760,  6.647,  0.879
 56940,  8.120, 33.246, 50.660,  6.848,  0.997
 57000,  8.988, 35.112, 48.051,  7.193,  1.058
 57060,  7.070, 29.450, 57.263,  5.873,  1.009
 57120,  5.887, 28.599, 61.686,  4.190,  1.072
 57180,  5.799, 29.713, 64.249,  5.016,  0.995
 57240,  5.451, 29.057, 68.310,  5.037,  1.021
 57300,  5.479, 29.355, 70.033,  4.796,  0.951
 57360, -9999.000, -9999.000, -9999.000, -9999.000, -9999.000
 57420,  7.761, 34.335, 46.898,  6.362,  1.090
 57480,  7.933, 35.707, 51.502,  6.403,  0.985
 57540,  9.534, 35.752, 48.165,  6.628,  1.037
 57600, 10.715, 35.980, 42.960,  7.158,  1.137
 57660, 11.048, 38.816, 42.811,  7.591,  1.179
 57720, 10.695, 36.093, 38.609,  7.465,  0.966
 57780, 11.748, 37.085, 47.914,  8.818,  7.951
 57840, 12.951, 40.868, 56.347,  9.715,  6.534
 57900, 12.877, 40.142, 55.909,  9.565, 11.066
 57960, 12.785, 40.333, 54.320,  9.144, 12.982
 58020, 12.400, 41.339, 61.121,  8.877, 13.354
 58080, 13.530, 41.952, 56.391,  9.476, 16.095
 58140, 13.523, 42.683, 55.984,  9.519, 15.980
 58200, 12.960, 38.651, 55.169,  9.573, 28.996
 58260, 12.919, 38.375, 53.973,  9.596, 25.853
 58320, 13.714, 41.716, 56.639,  9.336, 13.362
 58380, 13.890, 41.510, 58.081,  9.398, 12.334
 58440, 13.827, 41.802, 56.744,  9.475, 14.260
 58500, 14.543, 44.723, 57.874,  9.530,  6.866
 58560, 15.105, 45.490, 58.986,  9.394,  4.588
 58620, 15.397, 47.915, 57.285,  9.470,  5.922
 58680, 15.760, 48.680, 60.183,  9.498, 10.687
 58740, 15.358, 48.803, 59.440,  9.406, 10.877
 58800, -9999.000, -9999.000, -9999.000, -9999.000, -9999.000
 58860, -9999.000, -9999.000, -9999.000, -9999.000, -9999.000
 58920, -9999.000, -9999.000, -9999.000, -9999.000, -9999.000
 58980, -9999.000, -9999.000, -9999.000, -9999.000, -9999.000
 59040, -9999.000, -9999.000, -9999.000, -9999.000, -9999.000
 59100, -9999.000, -9999.000, -9999.000, -9999.000, -9999.000
 59160, -9999.000, -9999.000, -9999.000, -9999.000, -9999.000
 59220, -9999.000, -9999.000, -9999.000, -9999.000, -9999.000
 59280, -9999.000, -9999.000, -9999.000, -9999.000, -9999.000
 59340, -9999.000, -9999.000, -9999.000, -9999.000, -9999.000
 59400, -9999.000, -9999.000, -9999.000, -9999.000, -9999.000
 59460, -9999.000, -9999.000, -9999.000, -9999.000, -9999.000
 59520, -9999.000, -9999.000, -9999.000, -9999.000, -9999.000
 59580, -9999.000, -9999.000, -9999.000, -9999.000, -9999.000
 59640, -9999.000, -9999.000, -9999.000, -9999.000, -9999.000
 59700, -9999.000, -9999.000, -9999.000, -9999.000, -9999.000
 59760, -9999.000, -9999.000, -9999.000, -9999.000, -9999.000
 59820, -9999.000, -9999.000, -9999.000, -9999.000, -9999.000
 59880, -9999.000, -9999.000, -9999.000, -9999.000, -9999.000
 59940, 25.539, 77.888, 97.140, 11.033,  3.333
 60000, 24.496, 74.670, 87.752, 10.923,  3.560
 60060, 24.025, 75.595, 79.627, 10.404,  2.536
 60120, 24.170, 75.718, 91.045, 10.388,  2.182
 60180, 21.223, 65.329, 78.057,  9.862,  1.990
 60240, 21.581, 67.839, 79.646,  9.653,  2.011
 60300, 21.897, 70.756, 79.108,  9.561,  1.932
 60360, 21.548, 68.080, 83.499,  9.653,  1.799
 60420, 20.480, 62.403, 80.342,  9.278,  1.572
 60480, 21.201, 64.207, 85.737,  9.313,  1.552
 60540, 19.266, 50.663, 75.113,  8.809,  1.446
 60600, 19.971, 49.996, 73.788,  9.408,  1.442
 60660, 19.725, 48.614, 69.355,  9.189,  1.265
 60720, 20.470, 50.978, 74.119,  9.188,  1.372
 60780, 21.613, 52.363, 75.312,  9.383,  1.341
 60840, 20.890, 49.046, 70.976,  9.520,  1.394
 60900, 20.221, 43.808, 65.693,  9.489,  1.510
 60960, 20.374, 44.755, 66.104,  9.709,  1.527
 61020, 21.052, 46.996, 65.092,  9.565,  1.924
 61080, 23.692, 56.904, 70.867, 10.019,  1.663
 61140, 23.621, 56.394, 69.265, 10.020,  1.451
 61200, 23.605, 54.381, 67.710,  9.811,  1.424
 61260, 23.894, 53.626, 67.273,  9.917,  1.359
 61320, 24.199, 54.445, 68.614, 10.256,  1.489
 61380, 22.602, 48.213, 65.055,  9.808,  1.317
 61440, 22.565, 47.734, 64.942,  9.613,  1.177
 61500, 22.152, 45.352, 61.317,  9.545,  1.212
 61560, 22.170, 44.901, 58.295,  9.553,  1.230
 61620, 22.766, 44.760, 58.522,  9.678,  1.180
 61680, 23.150, 45.744, 56.501,  9.874,  1.247
 61740, 22.729, 42.584, 56.510,  9.421,  1.181
 61800, 21.929, 43.151, 39.631,  8.730,  0.632
 61860, 22.523, 42.977, 43.130,  9.436,  1.040
 61920, 22.407, 43.319, 48.141,  9.673,  1.249
 61980, 22.371, 42.116, 49.560,  9.633,  1.184
 62040, 21.732, 39.916, 45.489,  9.504,  1.063
 62100, 21.648, 40.239, 45.210,  9.900,  1.169
 62160, 20.800, 36.195, 40.972,  9.370,  0.995
 62220, 21.297, 36.688, 40.999,  9.715,  0.971
 62280, 21.228, 36.788, 40.635,  9.646,  0.988
 62340, 21.716, 36.041, 40.522,  9.986,  0.982
 62400, 21.547, 34.163, 39.062, 10.005,  0.972
 62460, 21.465, 34.203, 38.177, 10.130,  1.005
 62520, 22.044, 34.453, 39.397, 10.215,  1.009
 62580, 22.190, 37.667, 40.450, 10.158,  0.955
 62640, 22.827, 38.516, 42.267,  9.890,  0.889
 62700, 23.211, 38.644, 44.928,  9.964,  1.057
 62760, 22.699, 37.616, 43.006,  9.825,  0.835
 62820, 22.538, 37.141, 42.488,  9.902,  0.887
 62880, 22.280, 34.485, 39.575,  9.731,  0.895
 62940, 22.595, 33.359, 39.997, 10.141,  0.844
 63000, 22.396, 32.932, 39.192, 10.344,  0.825
 63060, 22.971, 34.400, 38.625, 10.170,  0.817
 63120, 22.262, 32.595, 37.951, 10.107,  0.784
 63180, 22.028, 33.038, 39.889,  9.965,  0.778
 63240, 22.934, 33.784, 38.092, 10.197,  0.806
 63300, 23.398, 33.080, 39.616, 10.182,  0.819
 63360, 23.477, 34.246, 40.911,  9.897,  0.769
 63420, 22.729, 33.438, 37.700,  9.537,  0.614
 63480, 23.026, 34.419, 40.133, 10.073,  0.843
 63540, 23.366, 34.046, 39.982,  9.535,  0.625
 63600, 23.474, 34.965, 41.925, 10.079,  0.869
 63660, 23.279, 34.587, 34.828,  9.813,  0.863
 63720, 23.962, 35.855, 39.570,  9.852,  0.824
 63780, 24.691, 36.655, 40.608, 10.182,  0.757
 63840, 24.594, 38.128, 43.920, 10.344,  0.921
 63900, 24.439, 35.658, 40.888,  9.998,  0.848
 63960, 24.153, 36.168, 44.904, 10.088,  0.985
 64020, 23.780, 35.283, 42.662, 10.104,  0.737
 64080, 23.818, 34.248, 41.809, 10.144,  0.736
 64140, 24.292, 34.576, 42.510, 10.169,  0.763
 64200, 24.455, 35.518, 42.892, 10.315,  0.836
 64260, 24.970, 35.305, 41.211, 10.852,  0.787
 64320, 24.963, 35.678, 45.362, 10.738,  0.696
 64380, 25.201, 36.239, 44.250, 10.530,  0.862
 64440, 21.903, 34.247, 43.068,  9.473,  0.671
 64500, 21.902, 33.209, 43.776,  9.312,  0.622
 64560, 19.615, 32.398, 43.092,  8.865,  0.579
 64620, 18.500, 30.658, 42.749,  8.762,  0.550
 64680, 17.423, 28.368, 42.996,  8.526,  0.476
 64740, 17.926, 29.589, 42.475,  8.316,  0.549
 64800, 16.373, 28.203, 43.650,  7.742,  0.478
 64860, 14.305, 25.272, 40.709,  6.813,  0.408
 64920, 14.697, 25.575, 43.131,  6.965,  0.324
 64980, 13.783, 27.855, 46.660,  6.472,  0.375
 65040, 10.615, 25.561, 56.001,  5.750,  0.476
 65100,  9.546, 23.432, 55.401,  5.104,  0.375
 65160, 11.057, 21.874, 38.329,  5.718,  0.355
 65220, 13.135, 24.624, 37.113,  6.349,  0.332
 65280, 12.094, 25.015, 36.093,  6.158,  0.275
 65340,  8.642, 19.239, 31.800,  4.852,  0.241
 65400,  5.783, 13.017, 28.882,  4.048,  0.170
 65460, -9999.000, -9999.000, -9999.000, -9999.000, -9999.000
 65520,  6.774, 14.146, 18.369,  3.917,  0.219
 65580,  7.077, 15.824, 21.991,  3.712,  0.171
 65640,  6.474, 14.941, 23.857,  3.914,  0.207
 65700,  5.345, 12.787, 21.628,  3.306,  0.120
 65760,  5.157, 12.483, 21.545,  3.166,  0.063
 65820,  5.296, 13.329, 22.434,  3.354,  0.165
 65880,  5.511, 13.070, 20.118,  3.304,  0.120
 65940,  5.725, 14.501, 20.794,  3.405,  0.157
 66000,  5.709, 14.669, 22.641,  3.488,  0.133
 66060,  5.707, 13.853, 23.721,  3.288,  0.085
 66120,  5.853, 14.565, 26.285,  3.289,  0.106
 66180,  5.604, 13.809, 26.879,  3.349,  0.124
 66240,  5.079, 13.315, 26.086,  3.241,  0.204
 66300,  5.658, 13.492, 30.512,  3.235,  0.111
 66360,  6.405, 15.489, 33.054,  3.483,  0.125
 66420,  6.823, 15.848, 33.876,  3.804,  0.144
 66480,  7.189, 17.986, 36.232,  3.898,  0.172
 66540,  7.386, 17.584, 35.783,  4.073,  0.107
 66600,  7.482, 17.986, 36.190,  4.003,  0.213
 66660,  7.315, 18.437, 35.110,  3.865,  0.201
 66720,  7.774, 17.804, 34.659,  4.066,  0.156
 66780,  7.714, 17.815, 33.744,  4.256,  0.187
 66840,  7.120, 18.391, 38.703,  3.720,  0.127
 66900,  7.008, 18.008, 44.306,  3.747,  0.128
 66960,  7.109, 16.528, 44.424,  3.847,  0.108
 67020,  7.182, 17.824, 44.963,  3.837,  0.116
 67080,  6.903, 17.098, 44.365,  3.505,  0.073
 67140,  6.868, 16.322, 40.815,  3.976,  0.092
 67200,  7.098, 17.676, 43.103,  3.750,  0.053
 67260,  6.961, 17.249, 42.141,  3.652,  0.113
 67320, -9999.000, -9999.000, -9999.000, -9999.000, -9999.000
 67380,  6.391, 16.103, 38.041,  3.468,  0.090
 67440,  6.628, 15.220, 36.467,  3.470,  0.090
 67500,  6.989, 16.704, 34.954,  3.633,  0.097
 67560,  7.213, 16.077, 32.878,  3.839,  0.105
 67620,  7.379, 18.211, 35.471,  3.944,  0.145
 67680,  6.933, 16.444, 34.069,  3.652,  0.093
 67740,  7.062, 18.022, 35.939,  3.681,  0.160
 67800,  6.999, 16.415, 36.144,  3.462,  0.108
 67860,  6.608, 15.227, 38.081,  3.355,  0.060
 67920,  6.367, 14.337, 39.462,  3.307,  0.070
 67980,  6.490, 14.647, 39.020,  3.282,  0.084
 68040,  7.069, 14.258, 38.117,  3.551,  0.056
 68100,  6.798, 14.742, 38.750,  3.427,  0.108
 68160,  6.955, 15.943, 38.792,  3.551,  0.110
 68220,  6.781, 15.322, 34.338,  3.604,  0.059
 68280,  7.391, 15.727, 35.784,  3.691,  0.169
 68340,  7.923, 14.384, 35.950,  3.854,  0.091
 68400,  7.563, 15.328, 33.038,  3.749,  0.099
 68460,  7.305, 16.019, 34.470,  3.617,  0.065
 68520,  7.010, 16.120, 35.404,  3.488,  0.091
 68580,  7.287, 15.497, 38.213,  3.602,  0.104
 68640,  6.985, 15.893, 39.418,  3.392,  0.089
 68700,  5.949, 13.789, 39.472,  3.153,  0.083
 68760,  5.632, 12.284, 37.471,  3.107,  0.059
 68820,  5.134, 10.490, 33.707,  2.663,  0.045
 68880,  6.146, 13.877, 36.253,  2.986,  0.094
 68940,  6.712, 15.724, 39.440,  3.300,  0.071
 69000,  8.515, 17.527, 38.792,  4.014,  0.086
 69060,  8.746, 17.885, 39.374,  4.083,  0.063
 69120,  9.281, 18.076, 38.656,  4.589,  0.135
 69180, -9999.000, -9999.000, -9999.000, -9999.000, -9999.000
 69240,  8.669, 15.751, 30.848,  4.149,  0.065
 69300,  8.890, 17.763, 36.356,  4.057,  0.122
 69360,  8.891, 17.837, 36.193,  4.192,  0.159
 69420,  8.929, 16.418, 38.196,  3.996,  0.103
 69480,  8.928, 16.479, 37.446,  3.972,  0.071
 69540,  9.245, 17.095, 39.375,  4.157,  0.128
 69600,  9.116, 15.277, 39.463,  3.851,  0.077
 69660,  9.501, 18.184, 43.646,  4.104,  0.081
 69720,  9.858, 21.415, 53.547,  4.216,  0.159
 69780,  9.637, 19.593, 49.895,  4.147,  0.107
 69840,  8.991, 14.603, 40.420,  4.056,  0.060
 69900,  8.938, 15.459, 39.076,  3.917,  0.061
 69960,  8.680, 14.523, 39.566,  4.061,  0.098
 70020,  8.638, 14.401, 37.167,  3.833,  0.049
 70080,  8.060, 12.989, 36.695,  3.585,  0.016
 70140,  8.053, 12.589, 36.272,  3.500,  0.000
 70200,  7.970, 13.429, 36.255,  3.825,  0.045
 70260,  8.167, 13.864, 35.740,  3.648,  0.137
 70320,  8.112, 11.849, 34.733,  3.566,  0.110
 70380,  7.956, 12.209, 35.076,  3.468,  0.090
 70440,  7.792, 12.533, 33.980,  2.991,  0.084
 70500,  8.083, 11.830, 31.513,  3.384,  0.101
 70560,  8.198, 12.394, 33.695,  3.590,  0.086
 70620,  8.737, 13.034, 37.534,  3.802,  0.063
 70680,  7.967, 12.340, 36.859,  3.594,  0.038
 70740,  7.712, 12.574, 37.257,  3.499,  0.033
 70800,  8.181, 12.732, 36.135,  3.461,  0.122
 70860,  8.592, 14.137, 37.961,  3.763,  0.110
 70920,  8.714, 14.072, 39.796,  3.712,  0.109
 70980,  8.759, 12.302, 42.514,  3.498,  0.038
 71040,  8.709, 12.995, 35.210,  3.922,  0.176
 71100,  8.769, 12.543, 36.147,  3.793,  0.097
 71160,  8.877, 12.333, 38.488,  3.605,  0.075
 71220,  8.570, 11.113, 37.896,  3.477,  0.050
 71280,  8.607, 11.594, 39.708,  3.304,  0.119
 71340,  8.660, 11.761, 39.089,  3.422,  0.086
 71400,  8.170,  9.109, 36.975,  3.155,  0.009
 71460,  8.251,  9.091, 35.529,  3.291,  0.014
 71520,  8.237,  9.743, 36.440,  3.335,  0.074
 71580,  8.335,  9.333, 37.167,  3.666,  0.020
 71640,  8.252, 10.132, 37.192,  3.422,  0.046
 71700,  8.040,  9.706, 36.465,  3.321,  0.017
 71760,  8.251,  9.598, 35.799,  3.574,  0.064
 71820,  8.245,  9.228, 33.748,  3.473,  0.059
 71880,  8.113,  9.681, 34.289,  3.331,  0.094
 71940,  8.679, 10.386, 34.734,  3.256,  0.043
 72000,  9.369, 11.098, 35.748,  3.383,  0.024
 72060,  9.232, 11.126, 37.937,  3.277,  0.063
 72120,  8.494,  9.971, 35.148,  3.302,  0.078
 72180,  8.493,  9.917, 36.076,  3.233,  0.080
 72240,  8.603,  9.434, 37.626,  3.575,  0.061
 72300,  8.913,  9.193, 36.552,  3.179,  0.034
 72360,  8.810,  9.556, 37.020,  3.309,  0.038
 72420,  8.564,  9.176, 36.733,  3.041,  0.042
 72480,  8.638, 10.204, 36.953,  3.008,  0.092
 72540,  8.639,  9.867, 36.558,  3.149,  0.053
 72600,  8.229,  9.506, 34.948,  3.040,  0.045
 72660,  8.472,  9.703, 35.786,  3.309,  0.068
 72720,  8.756,  9.890, 33.944,  3.122,  0.068
 72780,  8.967,  9.317, 32.614,  3.324,  0.095
 72840, -9999.000, -9999.000, -9999.000, -9999.000, -9999.000
 72900,  9.257, 10.332, 24.098,  3.504,  0.162
 72960,  9.888,  9.439, 26.081,  3.459,  0.065
 73020, 10.762,  9.168, 28.724,  3.337,  0.108
 73080, 10.856,  9.045, 27.529,  3.389,  0.076
 73140, 11.299, 10.616, 29.057,  3.531,  0.086
 73200, 12.121,  9.218, 24.229,  3.806,  0.081
 73260, 12.201,  9.265, 25.457,  3.864,  0.030
 73320, 11.912,  9.526, 25.026,  3.636,  0.086
 73380, 11.805,  9.473, 25.219,  3.802,  0.090
 73440, 11.731,  9.566, 27.891,  3.988,  0.047
 73500, 11.762,  9.443, 26.677,  4.111,  0.070
 73560, 11.991,  9.894, 27.284,  4.074,  0.087
 73620, 12.597,  9.968, 28.312,  4.152,  0.046
 73680, 12.325,  9.928, 27.586,  4.173,  0.071
 73740, 12.271,  9.983, 27.917,  4.144,  0.083
 73800, 12.136,  9.932, 29.799,  4.231,  0.035
 73860, 12.042,  8.861, 25.692,  4.132,  0.070
 73920, 12.246,  9.367, 26.515,  4.126,  0.061
 73980, 12.416,  9.356, 26.536,  4.005,  0.041
 74040, 12.043, 10.184, 27.275,  4.211,  0.084
 74100, 12.670, 10.310, 27.837,  4.163,  0.044
 74160, 12.427, 10.682, 29.905,  4.195,  0.124
 74220, 13.050, 12.452, 33.536,  4.382,  0.033
 74280, 12.583, 11.573, 34.206,  4.309,  0.093
 74340, 12.969, 11.174, 34.499,  4.295,  0.105
 74400, 13.273, 11.995, 37.211,  4.413,  0.106
 74460, 13.312, 11.817, 37.941,  4.256,  0.044
 74520, 13.210, 11.961, 39.428,  4.315,  0.076
 74580, 13.428, 11.314, 43.261,  4.512,  0.063
 74640, 12.769, 11.261, 42.249,  4.523,  0.066
 74700, -9999.000, -9999.000, -9999.000, -9999.000, -9999.000
 74760, 12.173, 11.093, 36.898,  4.349,  0.062
 74820, 12.075, 11.407, 38.819,  4.300,  0.070
 74880, 12.300, 11.603, 43.839,  4.389,  0.099
 74940, 12.126, 10.837, 44.240,  4.315,  0.049
 75000, 12.279, 10.943, 43.393,  4.289,  0.042
 75060, 12.262, 11.848, 44.441,  4.297,  0.045
 75120, 12.474, 10.277, 43.553,  4.416,  0.053
 75180, 12.143, 10.359, 42.684,  4.541,  0.004
 75240, 12.386,  9.854, 42.737,  4.508, -0.000
 75300, 12.604,  9.940, 42.941,  4.130,  0.007
 75360, 12.521, 10.648, 45.826,  4.470,  0.011
 75420, 12.787,  9.884, 44.588,  4.150,  0.040
 75480, 12.810, 10.722, 47.108,  4.292,  0.062
 75540, 12.869, 10.191, 47.283,  4.291,  0.050
 75600, 12.714, 10.577, 48.459,  4.430,  0.038
 75660, 13.064, 10.780, 48.848,  4.047,  0.046
 75720, 12.924, 10.533, 48.667,  4.460,  0.052
 75780, 12.828,  9.892, 47.033,  4.269,  0.039
 75840, 12.912, 10.200, 49.622,  4.515,  0.061
 75900, 12.617, 10.077, 48.528,  4.427,  0.057
 75960, 12.537,  9.452, 50.062,  4.096,  0.034
 76020, 12.988, 10.149, 50.180,  4.262,  0.041
 76080, 13.105, 10.750, 52.585,  4.162,  0.028
 76140, 12.827, 10.408, 51.062,  4.229,  0.046
 76200, 12.533, 10.233, 50.959,  4.395,  0.041
 76260, 12.251,  9.286, 46.445,  4.438,  0.046
 76320, 11.929,  9.121, 43.726,  4.931,  0.043
 76380, 11.850,  8.611, 41.574,  4.741,  0.039
 76440, 11.972,  8.357, 39.626,  4.669,  0.066
 76500, 12.103,  8.145, 38.057,  4.407,  0.016
 76560, -9999.000, -9999.000, -9999.000, -9999.000, -9999.000
 76620, 11.447,  8.594, 29.354,  4.618,  0.051
 76680, 11.782,  9.230, 33.259,  4.699,  0.016
 76740, 11.912,  9.161, 35.970,  4.711,  0.099
 76800, 12.154,  8.753, 36.866,  4.343,  0.062
 76860, 12.031,  8.748, 39.885,  4.643,  0.048
 76920, 11.588,  8.866, 38.078,  4.614,  0.047
 76980, 11.630,  9.144, 39.030,  4.638,  0.045
 77040, 11.700,  9.363, 40.956,  4.767,  0.050
 77100, 11.435,  8.819, 40.472,  4.449,  0.033
 77160, 11.954,  9.146, 42.238,  4.584,  0.067
 77220, 12.027,  9.032, 40.191,  4.547,  0.055
 77280, 12.059,  9.004, 40.326,  4.493,  0.043
 77340, 11.727,  8.374, 39.486,  4.389,  0.046
 77400, 11.716,  8.385, 39.067,  4.257,  0.030
 77460, 11.889,  8.544, 38.303,  4.374,  0.063
 77520, 12.312,  9.103, 40.047,  4.557,  0.028
 77580, 11.950,  8.986, 40.049,  4.390,  0.048
 77640, 12.187,  9.080, 41.355,  4.254,  0.029
 77700, 11.842,  8.921, 40.478,  4.586,  0.038
 77760, 11.922,  9.101, 40.580,  4.727,  0.048
 77820, 11.849,  9.516, 44.788,  4.518,  0.023
 77880, 11.908,  8.725, 43.856,  4.457,  0.026
 77940, 11.883,  8.481, 40.801,  4.589,  0.065
 78000, 11.938,  9.358, 40.064,  4.810,  0.059
 78060, 11.526,  9.183, 38.324,  5.135,  0.075
 78120, 11.589,  9.354, 37.261,  5.143,  0.099
 78180, 11.509,  9.495, 32.312,  5.191,  0.066
 78240, 11.403, 10.318, 32.485,  5.297,  0.049
 78300, 11.268, 10.274, 31.705,  5.151,  0.055
 78360, 11.639, 10.383, 32.013,  5.288,  0.045
 78420, 11.812, 12.189, 25.641,  5.849,  0.031
 78480, 11.471, 11.098, 29.265,  5.170,  0.059
 78540, 11.530, 10.562, 29.996,  5.167,  0.063
 78600, 11.648, 10.247, 29.678,  5.433,  0.049
 78660, 11.669, 10.610, 29.409,  5.635,  0.079
 78720, 11.746,  9.548, 28.030,  5.340,  0.080
 78780, 11.705,  8.840, 25.513,  5.580,  0.027
 78840, 11.923,  9.133, 27.036,  5.921,  0.099
 78900, 12.120,  9.206, 28.013,  5.956,  0.080
 78960, 11.960,  8.892, 28.528,  6.022,  0.081
 79020, 12.159,  9.287, 27.593,  5.775,  0.064
 79080, 12.506,  9.749, 28.097,  6.461,  0.036
 79140, 12.539, 10.028, 28.594,  6.476,  0.053
 79200, 12.464, 10.813, 29.561,  6.360,  0.061
 79260, 12.468,  9.636, 29.218,  6.093,  0.061
 79320, 12.578,  9.711, 29.732,  5.970,  0.057
 79380, 12.725, 10.122, 28.688,  5.864,  0.061
 79440, 12.307,  9.502, 28.242,  5.714,  0.045
 79500, 12.584, 10.299, 28.776,  5.860,  0.067
 79560, 12.540, 10.509, 30.360,  5.829,  0.063
 79620, 12.595,  9.831, 27.554,  5.600,  0.040
 79680, 12.349, 10.258, 29.072,  6.176,  0.084
 79740, 12.538, 10.933, 30.719,  5.773,  0.057
 79800, 12.313, 10.098, 32.118,  5.984,  0.037
 79860, 12.510, 10.671, 32.433,  5.848,  0.028
 79920, 12.390, 10.873, 33.726,  5.680,  0.030
 79980, 12.335, 11.463, 35.879,  5.523,  0.050
 80040, 12.269, 10.979, 36.062,  5.628,  0.069
 80100, 12.190, 10.547, 35.405,  5.229,  0.036
 80160, 12.198, 10.548, 36.412,  5.382,  0.057
 80220, 12.146, 10.326, 38.099,  5.079,  0.066
 80280, 11.549,  9.703, 26.932,  4.804,  0.051
 80340, 11.670, 10.742, 28.925,  5.291,  0.063
 80400, 11.424, 10.532, 29.922,  5.218,  0.060
 80460, 11.617,  9.718, 25.982,  5.025,  0.088
 80520, 12.040,  9.607, 24.973,  5.285,  0.072
 80580, 11.909,  9.865, 30.112,  5.374,  0.049
 80640, 11.748,  9.405, 30.853,  5.294,  0.033
 80700, 11.606,  9.348, 29.831,  4.996,  0.019
 80760, 11.753,  9.989, 31.131,  5.117,  0.035
 80820, 11.689, 10.245, 33.084,  5.346,  0.062
 80880, 11.688, 10.786, 36.103,  5.254,  0.047
 80940, 11.677, 11.498, 39.604,  4.944,  0.048
 81000, 11.015, 11.215, 43.161,  4.755,  0.037
 81060, 10.912, 12.384, 50.466,  4.837,  0.098
 81120, 10.940, 12.993, 49.823,  4.991,  0.089
 81180, 11.016, 12.228, 46.955,  5.063,  0.092
 81240, 10.953, 11.828, 43.891,  4.857,  0.025
 81300, 10.983, 11.415, 43.491,  4.925,  0.059
 81360, 11.028, 11.000, 41.083,  5.040,  0.092
 81420, 11.396, 10.088, 35.306,  5.132,  0.042
 81480, 11.445,  9.952, 32.703,  5.196,  0.044
 81540, 11.049, 10.727, 34.067,  5.285,  0.074
 81600, 10.561, 11.039, 37.935,  4.775,  0.047
 81660, 10.300, 10.594, 41.608,  4.709,  0.048
 81720, 10.034, 10.256, 43.428,  4.448,  0.062
 81780, 10.033, 10.300, 43.479,  4.565,  0.043
 81840, 10.017, 10.867, 43.587,  4.752,  0.056
 81900,  9.706, 10.199, 43.358,  4.582,  0.025
 81960,  9.981, 10.437, 42.619,  4.778,  0.068
 82020,  9.848, 10.572, 41.907,  4.794,  0.057
 82080, 10.432,  9.836, 41.344,  5.113,  0.112
 82140,  9.982,  9.398, 33.362,  4.922,  0.053
 82200,  9.922,  8.678, 34.364,  4.667,  0.020
 82260,  9.865,  9.900, 36.524,  4.739,  0.056
 82320,  9.852, 10.296, 37.453,  4.827,  0.046
 82380,  9.853,  9.533, 35.515,  4.755,  0.078
 82440,  9.746,  8.555, 31.448,  4.440,  0.054
 82500,  9.586,  8.415, 31.788,  4.575,  0.018
 82560,  9.325,  8.485, 28.799,  4.592,  0.031
 82620,  8.853,  8.657, 30.961,  4.413,  0.009
 82680,  8.698,  8.396, 31.003,  4.376,  0.056
 82740,  8.925,  8.546, 30.691,  4.491,  0.034
 82800,  8.596,  8.074, 29.755,  4.176,  0.040
 82860,  8.521,  8.465, 29.871,  4.213,  0.038
 82920,  8.710,  8.866, 30.856,  4.231,  0.069
 82980,  9.085,  8.437, 30.327,  4.472,  0.028
 83040,  9.013,  8.785, 31.554,  4.404,  0.020
 83100,  8.321,  8.652, 31.670,  4.070,  0.016
 83160,  7.978,  8.424, 32.384,  3.940,  0.058
 83220,  7.816,  7.723, 31.190,  3.581,  0.019
 83280,  7.889,  8.358, 32.175,  3.637,  0.002
 83340,  7.736,  7.885, 32.694,  3.824,  0.013
 83400,  7.732,  7.815, 32.121,  3.559, -0.006
 83460,  8.014,  8.452, 30.728,  3.823, -0.003
 83520,  8.222,  8.392, 31.920,  4.002,  0.030
 83580,  8.264,  8.086, 32.870,  3.987, -0.001
 83640,  8.081,  8.098, 31.759,  3.879,  0.005
 83700,  7.946,  8.152, 30.642,  3.818, -0.019
 83760,  8.024,  8.269, 31.992,  3.893,  0.021
 83820,  7.977,  7.894, 33.210,  3.903,  0.021
 83880,  7.574,  8.470, 35.246,  3.898,  0.011
 83940, -9999.000, -9999.000, -9999.000, -9999.000, -9999.000
 84000,  7.823,  7.244, 27.735,  3.659,  0.023
 84060,  7.841,  8.287, 29.706,  3.847,  0.033
 84120,  7.575,  8.698, 32.801,  3.857,  0.020
 84180,  7.710,  8.898, 33.213,  3.943,  0.059
 84240,  7.803,  8.918, 33.314,  3.886,  0.047
 84300,  7.854,  8.221, 32.784,  3.982,  0.051
 84360,  8.114,  8.066, 32.145,  4.100,  0.022
 84420,  8.421,  8.055, 31.604,  4.140,  0.040
 84480,  8.289,  8.019, 30.105,  4.156,  0.051
 84540,  8.295,  8.060, 29.867,  4.253,  0.048
 84600,  7.884,  7.967, 31.046,  4.168,  0.026
 84660,  7.397,  8.207, 32.304,  3.901,  0.054
 84720,  7.367,  8.460, 32.751,  3.996,  0.016
 84780,  6.945,  8.773, 35.222,  3.476,  0.050
 84840,  6.773,  8.926, 35.173,  3.426,  0.030
 84900,  6.783,  8.961, 35.683,  3.698,  0.049
 84960,  7.037,  8.884, 36.395,  3.636,  0.058
 85020,  7.071,  7.937, 35.997,  3.390,  0.056
 85080,  7.263,  8.649, 35.305,  3.665,  0.047
 85140,  7.156,  8.938, 37.200,  3.700,  0.035
 85200,  7.207,  8.565, 36.681,  3.586,  0.045
 85260,  7.253,  8.144, 36.345,  3.579,  0.056
 85320,  7.239,  8.083, 36.176,  3.637,  0.086
 85380,  7.134,  7.195, 35.705,  3.641,  0.043
 85440,  7.206,  7.618, 35.528,  3.542,  0.052
 85500,  6.884,  6.632, 34.052,  3.493,  0.043
 85560,  6.459,  7.080, 32.761,  3.382,  0.055
 85620,  6.173,  7.213, 33.326,  3.242,  0.052
 85680,  6.081,  7.328, 33.483,  3.125,  0.050
 85740,  5.794,  7.156, 31.765,  3.090,  0.046
 85800, -9999.000, -9999.000, -9999.000, -9999.000, -9999.000
 85860,  5.310,  7.416, 27.583,  2.963,  0.058
 85920,  5.459,  7.164, 30.453,  3.049,  0.056
 85980,  5.589,  7.673, 31.331,  3.095,  0.066
 86040,  5.593,  7.323, 30.008,  3.013,  0.052
 86100,  5.539,  8.364, 31.300,  3.078,  0.094
 86160,  5.480,  8.549, 33.005,  3.180,  0.122
 86220,  5.359,  8.592, 32.907,  3.212,  0.049
 86280,  5.459,  8.621, 31.997,  3.175,  0.062
 86340,  5.328,  7.485, 31.150,  3.109,  0.058
