34, 1001
Carrie Womack
NOAA Chemical Sciences Laboratory
2B Tech O3 UV Analyzer
USOS
1, 1
2024, 07, 23, 2024, 12, 21
60
Time_Start, seconds_past_midnight, Seconds from midnight UTC
1
1
-9999
O3_ppb, ppb, Ozone from 2B Tech UV Analyzer
1
SPECIAL COMMENTS:
18
PI_CONTACT_INFO: Address: 325 Broadway R/CSL7, Boulder, CO, 80305
PLATFORM: CSL Mobile Lab
LOCATION: Salt Lake City, UT
ASSOCIATED_DATA: N/A
INSTRUMENT_INFO: N/A
DATA_INFO: Units:
UNCERTAINTY: N/A
ULOD_FLAG: -7777
ULOD_VALUE: N/A
LLOD_FLAG: -8888
LLOD_VALUE: N/A
DM_CONTACT_INFO: Data Manager: Nate Howard
PROJECT_INFO: 
STIPULATIONS_ON_USE: Use of these data require prior ok from PI.
OTHER_COMMENTS: N/A
REVISION: R0
R0: Final data. RA: Preliminary Data.  For in-field use only.
Time_Start, O3_ppb
0.0,-9999.0
60.0,-9999.0
120.0,-9999.0
180.0,-9999.0
240.0,-9999.0
300.0,-9999.0
360.0,-9999.0
420.0,-9999.0
480.0,-9999.0
540.0,-9999.0
600.0,-9999.0
660.0,-9999.0
720.0,-9999.0
780.0,-9999.0
840.0,-9999.0
900.0,-9999.0
960.0,-9999.0
1020.0,-9999.0
1080.0,-9999.0
1140.0,-9999.0
1200.0,-9999.0
1260.0,-9999.0
1320.0,-9999.0
1380.0,-9999.0
1440.0,-9999.0
1500.0,-9999.0
1560.0,-9999.0
1620.0,-9999.0
1680.0,-9999.0
1740.0,-9999.0
1800.0,-9999.0
1860.0,-9999.0
1920.0,69.3
1980.0,71.4
2040.0,70.1
2100.0,68.8
2160.0,66.1
2220.0,65.7
2280.0,66.6
2340.0,65.7
2400.0,64.3
2460.0,64.5
2520.0,66.5
2580.0,65.7
2640.0,64.7
2700.0,68.7
2760.0,67.2
2820.0,66.9
2880.0,66.1
2940.0,65.2
3000.0,67.8
3060.0,69.5
3120.0,67.1
3180.0,66.7
3240.0,68.0
3300.0,69.3
3360.0,68.2
3420.0,67.0
3480.0,69.8
3540.0,68.2
3600.0,-9999.0
3660.0,-9999.0
3720.0,-9999.0
3780.0,-9999.0
3840.0,-9999.0
3900.0,-9999.0
3960.0,-9999.0
4020.0,-9999.0
4080.0,-9999.0
4140.0,-9999.0
4200.0,-9999.0
4260.0,-9999.0
4320.0,-9999.0
4380.0,-9999.0
4440.0,-9999.0
4500.0,-9999.0
4560.0,-9999.0
4620.0,-9999.0
4680.0,-9999.0
4740.0,-9999.0
4800.0,-9999.0
4860.0,-9999.0
4920.0,-9999.0
4980.0,-9999.0
5040.0,-9999.0
5100.0,-9999.0
5160.0,-9999.0
5220.0,-9999.0
5280.0,-9999.0
5340.0,-9999.0
5400.0,-9999.0
5460.0,-9999.0
5520.0,-9999.0
5580.0,-9999.0
5640.0,-9999.0
5700.0,-9999.0
5760.0,-9999.0
5820.0,-9999.0
5880.0,-9999.0
5940.0,64.9
6000.0,66.7
6060.0,65.1
6120.0,66.0
6180.0,66.8
6240.0,68.2
6300.0,66.0
6360.0,66.9
6420.0,66.6
6480.0,65.7
6540.0,64.9
6600.0,64.3
6660.0,64.2
6720.0,63.9
6780.0,63.5
6840.0,64.6
6900.0,62.3
6960.0,63.0
7020.0,62.3
7080.0,63.5
7140.0,64.7
7200.0,61.4
7260.0,60.5
7320.0,59.3
7380.0,60.8
7440.0,59.9
7500.0,59.6
7560.0,59.2
7620.0,62.6
7680.0,61.4
7740.0,62.1
7800.0,61.1
7860.0,61.7
7920.0,60.7
7980.0,60.4
8040.0,63.4
8100.0,68.9
8160.0,67.4
8220.0,67.4
8280.0,66.8
8340.0,68.0
8400.0,67.2
8460.0,68.4
8520.0,67.9
8580.0,68.5
8640.0,71.5
8700.0,70.3
8760.0,72.1
8820.0,72.2
8880.0,73.4
8940.0,73.4
9000.0,73.7
9060.0,72.7
9120.0,71.3
9180.0,71.5
9240.0,70.3
9300.0,71.3
9360.0,71.8
9420.0,70.5
9480.0,68.6
9540.0,68.8
9600.0,63.6
9660.0,60.5
9720.0,59.8
9780.0,59.0
9840.0,58.7
9900.0,57.4
9960.0,57.5
10020.0,56.7
10080.0,56.0
10140.0,56.4
10200.0,56.0
10260.0,55.8
10320.0,57.0
10380.0,57.1
10440.0,55.4
10500.0,53.4
10560.0,55.5
10620.0,56.2
10680.0,56.1
10740.0,55.2
10800.0,58.5
10860.0,59.0
10920.0,58.5
10980.0,56.7
11040.0,56.2
11100.0,55.7
11160.0,55.0
11220.0,55.5
11280.0,56.0
11340.0,56.9
11400.0,54.8
11460.0,54.6
11520.0,54.7
11580.0,56.4
11640.0,55.3
11700.0,56.4
11760.0,56.3
11820.0,55.7
11880.0,56.1
11940.0,56.4
12000.0,56.8
12060.0,55.7
12120.0,55.7
12180.0,54.9
12240.0,54.9
12300.0,56.1
12360.0,55.3
12420.0,55.1
12480.0,54.3
12540.0,54.2
12600.0,52.5
12660.0,54.3
12720.0,54.8
12780.0,55.5
12840.0,55.3
12900.0,53.3
12960.0,56.1
13020.0,54.8
13080.0,54.1
13140.0,54.6
13200.0,56.5
13260.0,55.5
13320.0,54.3
13380.0,56.8
13440.0,54.6
13500.0,54.6
13560.0,51.5
13620.0,53.8
13680.0,54.4
13740.0,51.2
13800.0,50.3
13860.0,39.9
13920.0,47.4
13980.0,52.0
14040.0,51.8
14100.0,52.3
14160.0,52.6
14220.0,52.8
14280.0,53.8
14340.0,52.0
14400.0,54.8
14460.0,55.5
14520.0,54.5
14580.0,53.1
14640.0,52.2
14700.0,51.0
14760.0,51.5
14820.0,51.1
14880.0,53.2
14940.0,50.3
15000.0,55.6
15060.0,57.7
15120.0,56.0
15180.0,54.6
15240.0,53.5
15300.0,54.5
15360.0,54.0
15420.0,56.5
15480.0,57.8
15540.0,59.1
15600.0,58.7
15660.0,59.3
15720.0,59.7
15780.0,59.5
15840.0,60.5
15900.0,60.9
15960.0,61.0
16020.0,60.8
16080.0,61.5
16140.0,60.6
16200.0,61.5
16260.0,61.7
16320.0,61.9
16380.0,62.3
16440.0,61.9
16500.0,61.4
16560.0,61.1
16620.0,61.3
16680.0,60.2
16740.0,60.8
16800.0,60.3
16860.0,61.1
16920.0,60.1
16980.0,61.5
17040.0,61.6
17100.0,61.2
17160.0,61.6
17220.0,61.6
17280.0,61.8
17340.0,61.7
17400.0,61.8
17460.0,62.6
17520.0,61.0
17580.0,60.8
17640.0,62.0
17700.0,63.1
17760.0,61.6
17820.0,61.0
17880.0,61.8
17940.0,61.1
18000.0,60.7
18060.0,61.4
18120.0,60.5
18180.0,60.0
18240.0,59.6
18300.0,62.1
18360.0,60.9
18420.0,58.0
18480.0,58.1
18540.0,59.7
18600.0,56.0
18660.0,57.7
18720.0,58.3
18780.0,61.8
18840.0,63.2
18900.0,63.1
18960.0,62.7
19020.0,63.4
19080.0,63.9
19140.0,61.6
19200.0,61.7
19260.0,59.3
19320.0,63.1
19380.0,56.8
19440.0,55.3
19500.0,61.8
19560.0,60.4
19620.0,58.0
19680.0,53.1
19740.0,52.2
19800.0,52.6
19860.0,52.0
19920.0,52.0
19980.0,49.2
20040.0,49.2
20100.0,48.9
20160.0,49.8
20220.0,50.0
20280.0,49.3
20340.0,50.2
20400.0,52.6
20460.0,51.4
20520.0,34.5
20580.0,48.7
20640.0,50.1
20700.0,51.8
20760.0,53.3
20820.0,50.3
20880.0,54.6
20940.0,62.1
21000.0,63.5
21060.0,63.9
21120.0,64.8
21180.0,61.4
21240.0,66.1
21300.0,65.5
21360.0,65.2
21420.0,66.7
21480.0,66.3
21540.0,66.2
21600.0,65.8
21660.0,66.8
21720.0,66.6
21780.0,66.4
21840.0,67.3
21900.0,67.3
21960.0,66.4
22020.0,67.1
22080.0,67.8
22140.0,67.6
22200.0,66.6
22260.0,65.2
22320.0,65.0
22380.0,65.2
22440.0,65.5
22500.0,66.5
22560.0,65.2
22620.0,63.3
22680.0,61.5
22740.0,59.0
22800.0,60.4
22860.0,63.4
22920.0,66.7
22980.0,62.9
23040.0,62.9
23100.0,63.2
23160.0,63.1
23220.0,63.3
23280.0,66.0
23340.0,64.4
23400.0,63.3
23460.0,65.2
23520.0,65.3
23580.0,64.9
23640.0,59.9
23700.0,54.0
23760.0,54.8
23820.0,55.3
23880.0,51.8
23940.0,54.0
24000.0,62.3
24060.0,61.4
24120.0,61.3
24180.0,66.8
24240.0,66.9
24300.0,67.2
24360.0,67.0
24420.0,67.2
24480.0,67.1
24540.0,65.4
24600.0,68.0
24660.0,67.6
24720.0,68.1
24780.0,67.2
24840.0,70.0
24900.0,68.4
24960.0,68.4
25020.0,69.0
25080.0,68.5
25140.0,67.8
25200.0,68.5
25260.0,66.4
25320.0,68.5
25380.0,68.2
25440.0,67.9
25500.0,66.6
25560.0,67.4
25620.0,67.6
25680.0,67.5
25740.0,67.7
25800.0,66.6
25860.0,66.2
25920.0,66.5
25980.0,67.6
26040.0,67.2
26100.0,66.3
26160.0,67.0
26220.0,67.0
26280.0,66.7
26340.0,66.5
26400.0,66.7
26460.0,66.0
26520.0,66.7
26580.0,66.5
26640.0,66.7
26700.0,66.8
26760.0,66.8
26820.0,67.1
26880.0,67.1
26940.0,67.0
27000.0,66.6
27060.0,66.6
27120.0,66.8
27180.0,66.7
27240.0,66.3
27300.0,65.1
27360.0,66.5
27420.0,66.0
27480.0,65.7
27540.0,66.5
27600.0,65.9
27660.0,65.5
27720.0,66.3
27780.0,65.4
27840.0,65.6
27900.0,65.2
27960.0,65.5
28020.0,64.9
28080.0,65.3
28140.0,64.6
28200.0,64.5
28260.0,65.7
28320.0,65.5
28380.0,64.9
28440.0,64.8
28500.0,64.9
28560.0,65.9
28620.0,65.2
28680.0,65.6
28740.0,65.9
28800.0,65.4
28860.0,66.3
28920.0,65.9
28980.0,65.5
29040.0,67.0
29100.0,65.2
29160.0,64.9
29220.0,66.9
29280.0,66.8
29340.0,65.3
29400.0,64.7
29460.0,65.9
29520.0,65.7
29580.0,65.1
29640.0,65.5
29700.0,65.4
29760.0,65.2
29820.0,65.1
29880.0,65.0
29940.0,66.1
30000.0,65.6
30060.0,64.8
30120.0,65.4
30180.0,64.6
30240.0,65.2
30300.0,65.9
30360.0,65.1
30420.0,65.8
30480.0,65.2
30540.0,66.1
30600.0,65.8
30660.0,65.9
30720.0,66.1
30780.0,66.4
30840.0,66.4
30900.0,66.9
30960.0,66.2
31020.0,65.8
31080.0,65.7
31140.0,65.5
31200.0,65.5
31260.0,65.3
31320.0,66.3
31380.0,66.3
31440.0,65.6
31500.0,63.6
31560.0,64.6
31620.0,66.3
31680.0,65.6
31740.0,66.0
31800.0,65.1
31860.0,65.5
31920.0,66.0
31980.0,65.8
32040.0,66.1
32100.0,65.8
32160.0,65.8
32220.0,65.2
32280.0,63.9
32340.0,66.0
32400.0,65.5
32460.0,65.5
32520.0,65.2
32580.0,65.5
32640.0,65.1
32700.0,64.8
32760.0,65.8
32820.0,65.6
32880.0,66.0
32940.0,65.7
33000.0,65.1
33060.0,65.4
33120.0,65.7
33180.0,64.8
33240.0,66.1
33300.0,65.2
33360.0,65.7
33420.0,66.5
33480.0,65.9
33540.0,66.2
33600.0,66.0
33660.0,66.6
33720.0,65.1
33780.0,64.7
33840.0,66.2
33900.0,65.7
33960.0,65.8
34020.0,66.3
34080.0,65.2
34140.0,64.7
34200.0,65.5
34260.0,65.5
34320.0,65.8
34380.0,66.4
34440.0,66.0
34500.0,65.8
34560.0,65.3
34620.0,65.1
34680.0,66.4
34740.0,66.2
34800.0,66.9
34860.0,65.8
34920.0,66.1
34980.0,65.2
35040.0,65.5
35100.0,66.4
35160.0,66.3
35220.0,65.8
35280.0,66.1
35340.0,67.0
35400.0,66.6
35460.0,66.2
35520.0,65.8
35580.0,66.2
35640.0,65.2
35700.0,65.1
35760.0,66.5
35820.0,65.0
35880.0,66.2
35940.0,64.0
36000.0,63.0
36060.0,61.4
36120.0,60.8
36180.0,60.2
36240.0,65.2
36300.0,66.3
36360.0,65.7
36420.0,65.7
36480.0,66.1
36540.0,67.1
36600.0,66.6
36660.0,65.1
36720.0,64.0
36780.0,64.2
36840.0,63.8
36900.0,62.0
36960.0,62.9
37020.0,65.2
37080.0,65.4
37140.0,64.1
37200.0,64.9
37260.0,65.7
37320.0,66.2
37380.0,65.0
37440.0,64.9
37500.0,65.7
37560.0,65.6
37620.0,66.1
37680.0,65.6
37740.0,64.7
37800.0,65.5
37860.0,65.4
37920.0,65.6
37980.0,66.5
38040.0,66.9
38100.0,66.2
38160.0,67.5
38220.0,66.9
38280.0,67.1
38340.0,66.6
38400.0,67.6
38460.0,67.1
38520.0,66.1
38580.0,66.3
38640.0,67.2
38700.0,67.0
38760.0,66.8
38820.0,66.4
38880.0,67.0
38940.0,66.9
39000.0,67.6
39060.0,67.5
39120.0,68.2
39180.0,67.6
39240.0,68.4
39300.0,67.7
39360.0,68.6
39420.0,68.5
39480.0,67.3
39540.0,68.0
39600.0,68.1
39660.0,68.2
39720.0,68.9
39780.0,66.4
39840.0,66.4
39900.0,68.2
39960.0,69.0
40020.0,68.6
40080.0,66.9
40140.0,67.6
40200.0,68.4
40260.0,67.8
40320.0,68.3
40380.0,68.0
40440.0,67.1
40500.0,67.5
40560.0,68.2
40620.0,68.5
40680.0,66.1
40740.0,66.6
40800.0,66.9
40860.0,66.0
40920.0,65.1
40980.0,63.1
41040.0,60.9
41100.0,60.4
41160.0,58.6
41220.0,57.7
41280.0,57.0
41340.0,60.0
41400.0,59.7
41460.0,60.6
41520.0,54.9
41580.0,57.9
41640.0,59.2
41700.0,60.1
41760.0,59.2
41820.0,57.3
41880.0,60.2
41940.0,55.8
42000.0,55.0
42060.0,59.8
42120.0,58.2
42180.0,61.1
42240.0,59.5
42300.0,58.5
42360.0,56.1
42420.0,54.2
42480.0,53.7
42540.0,54.7
42600.0,54.2
42660.0,55.1
42720.0,54.2
42780.0,52.4
42840.0,53.3
42900.0,53.6
42960.0,53.4
43020.0,58.4
43080.0,56.6
43140.0,54.3
43200.0,62.0
43260.0,57.1
43320.0,51.1
43380.0,49.4
43440.0,49.2
43500.0,47.0
43560.0,49.3
43620.0,50.1
43680.0,46.8
43740.0,45.8
43800.0,59.1
43860.0,51.2
43920.0,47.6
43980.0,48.1
44040.0,46.7
44100.0,44.6
44160.0,45.4
44220.0,42.4
44280.0,34.4
44340.0,34.7
44400.0,36.2
44460.0,37.7
44520.0,42.6
44580.0,53.6
44640.0,54.4
44700.0,50.9
44760.0,50.4
44820.0,50.7
44880.0,53.8
44940.0,54.5
45000.0,52.9
45060.0,49.7
45120.0,51.7
45180.0,50.4
45240.0,46.5
45300.0,39.9
45360.0,43.1
45420.0,41.0
45480.0,44.0
45540.0,48.1
45600.0,46.1
45660.0,46.0
45720.0,45.4
45780.0,45.1
45840.0,45.7
45900.0,44.8
45960.0,44.5
46020.0,42.5
46080.0,38.2
46140.0,39.9
46200.0,43.3
46260.0,42.3
46320.0,41.4
46380.0,41.5
46440.0,41.4
46500.0,41.9
46560.0,41.4
46620.0,40.0
46680.0,39.8
46740.0,45.1
46800.0,41.4
46860.0,38.8
46920.0,42.0
46980.0,46.9
47040.0,47.0
47100.0,47.3
47160.0,47.0
47220.0,45.4
47280.0,46.1
47340.0,44.5
47400.0,41.9
47460.0,43.7
47520.0,44.1
47580.0,41.6
47640.0,41.1
47700.0,38.3
47760.0,39.2
47820.0,37.8
47880.0,39.2
47940.0,40.0
48000.0,40.2
48060.0,41.6
48120.0,39.8
48180.0,42.7
48240.0,41.4
48300.0,39.6
48360.0,39.3
48420.0,42.7
48480.0,40.3
48540.0,41.8
48600.0,41.2
48660.0,41.6
48720.0,33.9
48780.0,26.9
48840.0,29.6
48900.0,36.1
48960.0,35.3
49020.0,32.4
49080.0,29.6
49140.0,40.8
49200.0,57.4
49260.0,54.5
49320.0,58.1
49380.0,60.1
49440.0,60.1
49500.0,54.5
49560.0,48.9
49620.0,56.7
49680.0,54.4
49740.0,56.1
49800.0,55.0
49860.0,54.1
49920.0,49.1
49980.0,48.2
50040.0,49.1
50100.0,55.3
50160.0,50.2
50220.0,42.9
50280.0,47.7
50340.0,47.8
50400.0,48.4
50460.0,43.9
50520.0,43.4
50580.0,41.5
50640.0,41.1
50700.0,40.9
50760.0,38.7
50820.0,36.7
50880.0,35.0
50940.0,33.5
51000.0,34.0
51060.0,32.4
51120.0,35.6
51180.0,35.3
51240.0,35.1
51300.0,36.3
51360.0,38.6
51420.0,39.4
51480.0,38.7
51540.0,36.4
51600.0,38.9
51660.0,43.3
51720.0,42.9
51780.0,44.6
51840.0,45.8
51900.0,46.4
51960.0,43.0
52020.0,45.4
52080.0,48.5
52140.0,46.4
52200.0,44.9
52260.0,41.2
52320.0,39.7
52380.0,39.5
52440.0,38.8
52500.0,38.4
52560.0,38.2
52620.0,37.2
52680.0,35.0
52740.0,34.5
52800.0,34.5
52860.0,36.0
52920.0,36.2
52980.0,37.6
53040.0,33.6
53100.0,34.4
53160.0,33.0
53220.0,30.1
53280.0,33.3
53340.0,31.7
53400.0,33.9
53460.0,33.1
53520.0,30.0
53580.0,30.2
53640.0,36.5
53700.0,37.9
53760.0,38.3
53820.0,37.2
53880.0,39.1
53940.0,33.8
54000.0,27.2
54060.0,38.1
54120.0,41.3
54180.0,42.8
54240.0,41.5
54300.0,39.4
54360.0,38.0
54420.0,38.7
54480.0,41.2
54540.0,42.7
54600.0,42.7
54660.0,42.8
54720.0,42.4
54780.0,44.3
54840.0,40.4
54900.0,41.6
54960.0,40.7
55020.0,40.9
55080.0,39.5
55140.0,36.7
55200.0,39.3
55260.0,39.5
55320.0,41.3
55380.0,41.2
55440.0,42.1
55500.0,42.2
55560.0,40.1
55620.0,40.1
55680.0,40.4
55740.0,41.5
55800.0,39.4
55860.0,42.0
55920.0,43.8
55980.0,40.1
56040.0,39.6
56100.0,39.5
56160.0,36.8
56220.0,40.2
56280.0,43.8
56340.0,45.5
56400.0,46.0
56460.0,45.4
56520.0,45.6
56580.0,45.1
56640.0,44.3
56700.0,43.1
56760.0,42.4
56820.0,42.1
56880.0,43.9
56940.0,43.1
57000.0,44.1
57060.0,44.5
57120.0,43.5
57180.0,43.8
57240.0,43.4
57300.0,42.1
57360.0,43.6
57420.0,44.5
57480.0,44.9
57540.0,44.6
57600.0,45.2
57660.0,46.2
57720.0,45.7
57780.0,47.3
57840.0,47.8
57900.0,48.8
57960.0,49.0
58020.0,48.9
58080.0,51.3
58140.0,50.0
58200.0,52.6
58260.0,53.1
58320.0,54.1
58380.0,53.6
58440.0,56.5
58500.0,56.6
58560.0,56.4
58620.0,55.3
58680.0,54.5
58740.0,55.2
58800.0,56.6
58860.0,54.6
58920.0,55.9
58980.0,56.6
59040.0,56.6
59100.0,56.6
59160.0,56.3
59220.0,56.3
59280.0,56.8
59340.0,57.0
59400.0,58.1
59460.0,56.9
59520.0,54.3
59580.0,58.3
59640.0,50.3
59700.0,50.4
59760.0,44.5
59820.0,41.7
59880.0,43.8
59940.0,27.2
60000.0,-8.4
60060.0,-10.7
60120.0,49.6
60180.0,54.6
60240.0,55.2
60300.0,56.0
60360.0,55.6
60420.0,-9999.0
60480.0,-9999.0
60540.0,-9999.0
60600.0,-9999.0
60660.0,-9999.0
60720.0,-9999.0
60780.0,-9999.0
60840.0,-9999.0
60900.0,-9999.0
60960.0,-9999.0
61020.0,-9999.0
61080.0,-9999.0
61140.0,-9999.0
61200.0,-9999.0
61260.0,-9999.0
61320.0,-9999.0
61380.0,-9999.0
61440.0,-9999.0
61500.0,-9999.0
61560.0,66.7
61620.0,66.2
61680.0,-9999.0
61740.0,-9999.0
61800.0,-9999.0
61860.0,-9999.0
61920.0,-9999.0
61980.0,-9999.0
62040.0,-9999.0
62100.0,-9999.0
62160.0,-9999.0
62220.0,-9999.0
62280.0,-9999.0
62340.0,-9999.0
62400.0,-9999.0
62460.0,-9999.0
62520.0,-9999.0
62580.0,-9999.0
62640.0,-9999.0
62700.0,-9999.0
62760.0,-9999.0
62820.0,-9999.0
62880.0,-9999.0
62940.0,-9999.0
63000.0,-9999.0
63060.0,-9999.0
63120.0,-9999.0
63180.0,-9999.0
63240.0,-9999.0
63300.0,-9999.0
63360.0,-9999.0
63420.0,-9999.0
63480.0,-9999.0
63540.0,-9999.0
63600.0,-9999.0
63660.0,-9999.0
63720.0,-9999.0
63780.0,-9999.0
63840.0,-9999.0
63900.0,-9999.0
63960.0,-9999.0
64020.0,-9999.0
64080.0,-9999.0
64140.0,-9999.0
64200.0,-9999.0
64260.0,-9999.0
64320.0,-9999.0
64380.0,-9999.0
64440.0,-9999.0
64500.0,-9999.0
64560.0,-9999.0
64620.0,-9999.0
64680.0,-9999.0
64740.0,-9999.0
64800.0,-9999.0
64860.0,-9999.0
64920.0,-9999.0
64980.0,-9999.0
65040.0,-9999.0
65100.0,-9999.0
65160.0,-9999.0
65220.0,-9999.0
65280.0,-9999.0
65340.0,-9999.0
65400.0,-9999.0
65460.0,-9999.0
65520.0,-9999.0
65580.0,-9999.0
65640.0,-9999.0
65700.0,-9999.0
65760.0,-9999.0
65820.0,-9999.0
65880.0,-9999.0
65940.0,-9999.0
66000.0,-9999.0
66060.0,-9999.0
66120.0,-9999.0
66180.0,-9999.0
66240.0,-9999.0
66300.0,-9999.0
66360.0,-9999.0
66420.0,-9999.0
66480.0,-9999.0
66540.0,-9999.0
66600.0,-9999.0
66660.0,-9999.0
66720.0,-9999.0
66780.0,-9999.0
66840.0,-9999.0
66900.0,-9999.0
66960.0,-9999.0
67020.0,-9999.0
67080.0,-9999.0
67140.0,-9999.0
67200.0,-9999.0
67260.0,-9999.0
67320.0,-9999.0
67380.0,-9999.0
67440.0,-9999.0
67500.0,-9999.0
67560.0,-9999.0
67620.0,-9999.0
67680.0,-9999.0
67740.0,-9999.0
67800.0,-9999.0
67860.0,-9999.0
67920.0,-9999.0
67980.0,-9999.0
68040.0,-9999.0
68100.0,-9999.0
68160.0,-9999.0
68220.0,-9999.0
68280.0,-9999.0
68340.0,-9999.0
68400.0,-9999.0
68460.0,-9999.0
68520.0,-9999.0
68580.0,-9999.0
68640.0,-9999.0
68700.0,-9999.0
68760.0,-9999.0
68820.0,-9999.0
68880.0,-9999.0
68940.0,-9999.0
69000.0,-9999.0
69060.0,-9999.0
69120.0,-9999.0
69180.0,-9999.0
69240.0,-9999.0
69300.0,-9999.0
69360.0,-9999.0
69420.0,-9999.0
69480.0,-9999.0
69540.0,-9999.0
69600.0,-9999.0
69660.0,-9999.0
69720.0,-9999.0
69780.0,-9999.0
69840.0,-9999.0
69900.0,-9999.0
69960.0,-9999.0
70020.0,-9999.0
70080.0,-9999.0
70140.0,-9999.0
70200.0,-9999.0
70260.0,-9999.0
70320.0,-9999.0
70380.0,-9999.0
70440.0,-9999.0
70500.0,-9999.0
70560.0,-9999.0
70620.0,-9999.0
70680.0,-9999.0
70740.0,-9999.0
70800.0,-9999.0
70860.0,-9999.0
70920.0,-9999.0
70980.0,-9999.0
71040.0,-9999.0
71100.0,-9999.0
71160.0,-9999.0
71220.0,-9999.0
71280.0,-9999.0
71340.0,-9999.0
71400.0,-9999.0
71460.0,-9999.0
71520.0,-9999.0
71580.0,-9999.0
71640.0,-9999.0
71700.0,-9999.0
71760.0,-9999.0
71820.0,-9999.0
71880.0,-9999.0
71940.0,-9999.0
72000.0,-9999.0
72060.0,-9999.0
72120.0,-9999.0
72180.0,-9999.0
72240.0,-9999.0
72300.0,-9999.0
72360.0,-9999.0
72420.0,-9999.0
72480.0,-9999.0
72540.0,-9999.0
72600.0,-9999.0
72660.0,-9999.0
72720.0,-9999.0
72780.0,-9999.0
72840.0,-9999.0
72900.0,-9999.0
72960.0,-9999.0
73020.0,-9999.0
73080.0,-9999.0
73140.0,-9999.0
73200.0,-9999.0
73260.0,-9999.0
73320.0,-9999.0
73380.0,-9999.0
73440.0,-9999.0
73500.0,-9999.0
73560.0,-9999.0
73620.0,-9999.0
73680.0,-9999.0
73740.0,-9999.0
73800.0,-9999.0
73860.0,-9999.0
73920.0,-9999.0
73980.0,-9999.0
74040.0,-9999.0
74100.0,-9999.0
74160.0,-9999.0
74220.0,-9999.0
74280.0,-9999.0
74340.0,-9999.0
74400.0,-9999.0
74460.0,-9999.0
74520.0,-9999.0
74580.0,-9999.0
74640.0,-9999.0
74700.0,-9999.0
74760.0,-9999.0
74820.0,-9999.0
74880.0,-9999.0
74940.0,-9999.0
75000.0,-9999.0
75060.0,-9999.0
75120.0,-9999.0
75180.0,-9999.0
75240.0,-9999.0
75300.0,-9999.0
75360.0,-9999.0
75420.0,-9999.0
75480.0,-9999.0
75540.0,-9999.0
75600.0,-9999.0
75660.0,-9999.0
75720.0,-9999.0
75780.0,-9999.0
75840.0,-9999.0
75900.0,-9999.0
75960.0,-9999.0
76020.0,-9999.0
76080.0,-9999.0
76140.0,-9999.0
76200.0,-9999.0
76260.0,-9999.0
76320.0,-9999.0
76380.0,-9999.0
76440.0,-9999.0
76500.0,-9999.0
76560.0,-9999.0
76620.0,-9999.0
76680.0,-9999.0
76740.0,-9999.0
76800.0,-9999.0
76860.0,-9999.0
76920.0,-9999.0
76980.0,-9999.0
77040.0,-9999.0
77100.0,-9999.0
77160.0,-9999.0
77220.0,-9999.0
77280.0,-9999.0
77340.0,-9999.0
77400.0,-9999.0
77460.0,-9999.0
77520.0,-9999.0
77580.0,-9999.0
77640.0,-9999.0
77700.0,-9999.0
77760.0,-9999.0
77820.0,-9999.0
77880.0,-9999.0
77940.0,-9999.0
78000.0,-9999.0
78060.0,-9999.0
78120.0,-9999.0
78180.0,-9999.0
78240.0,-9999.0
78300.0,-9999.0
78360.0,-9999.0
78420.0,-9999.0
78480.0,-9999.0
78540.0,-9999.0
78600.0,-9999.0
78660.0,-9999.0
78720.0,-9999.0
78780.0,-9999.0
78840.0,-9999.0
78900.0,-9999.0
78960.0,-9999.0
79020.0,-9999.0
79080.0,-9999.0
79140.0,-9999.0
79200.0,-9999.0
79260.0,-9999.0
79320.0,-9999.0
79380.0,-9999.0
79440.0,-9999.0
79500.0,-9999.0
79560.0,-9999.0
79620.0,-9999.0
79680.0,-9999.0
79740.0,-9999.0
79800.0,-9999.0
79860.0,-9999.0
79920.0,-9999.0
79980.0,-9999.0
80040.0,-9999.0
80100.0,-9999.0
80160.0,-9999.0
80220.0,-9999.0
80280.0,-9999.0
80340.0,-9999.0
80400.0,-9999.0
80460.0,-9999.0
80520.0,-9999.0
80580.0,-9999.0
80640.0,-9999.0
80700.0,-9999.0
80760.0,-9999.0
80820.0,-9999.0
80880.0,-9999.0
80940.0,-9999.0
81000.0,-9999.0
81060.0,-9999.0
81120.0,-9999.0
81180.0,-9999.0
81240.0,-9999.0
81300.0,-9999.0
81360.0,-9999.0
81420.0,-9999.0
81480.0,-9999.0
81540.0,-9999.0
81600.0,-9999.0
81660.0,-9999.0
81720.0,-9999.0
81780.0,-9999.0
81840.0,-9999.0
81900.0,-9999.0
81960.0,-9999.0
82020.0,-9999.0
82080.0,80.5
82140.0,84.5
82200.0,85.4
82260.0,83.0
82320.0,84.1
82380.0,84.9
82440.0,85.9
82500.0,85.3
82560.0,85.5
82620.0,84.7
82680.0,81.1
82740.0,82.8
82800.0,83.0
82860.0,83.7
82920.0,84.8
82980.0,86.6
83040.0,86.7
83100.0,81.1
83160.0,83.7
83220.0,83.1
83280.0,86.5
83340.0,85.8
83400.0,82.1
83460.0,80.5
83520.0,73.6
83580.0,80.9
83640.0,83.7
83700.0,83.5
83760.0,82.4
83820.0,83.0
83880.0,82.4
83940.0,72.8
84000.0,74.6
84060.0,81.0
84120.0,81.9
84180.0,82.7
84240.0,81.9
84300.0,81.8
84360.0,81.6
84420.0,81.4
84480.0,81.5
84540.0,80.3
84600.0,80.1
84660.0,-9999.0
84720.0,-9999.0
84780.0,-9999.0
84840.0,-9999.0
84900.0,-9999.0
84960.0,-9999.0
85020.0,-9999.0
85080.0,-9999.0
85140.0,-9999.0
85200.0,-9999.0
85260.0,-9999.0
85320.0,-9999.0
85380.0,-9999.0
85440.0,-9999.0
85500.0,-9999.0
85560.0,85.1
85620.0,83.1
85680.0,84.4
85740.0,83.1
85800.0,82.7
85860.0,83.5
85920.0,81.8
85980.0,81.1
86040.0,79.2
86100.0,83.1
86160.0,84.1
86220.0,83.4
86280.0,83.3
86340.0,83.0
